# extract -m O2 -x 5000,25000 -o HITRAN2012_05000-25000_O2 /Users/yuka/data/HITRAN2012/07_hit12.par
#
# molecule: O2
# temperature:   296.00 K
# pressure:     1013.25 mb
# number of lines:                       2256
# min, max line strength:            5.04e-32      8.8e-24
# format: vSEan
# min, max airbroad.  widths:           0.022        0.066
# min, max selfbroad. widths:           0.027        0.059
# min, max temp. exponent:              0.620        1.060
#   position    strength      energy airWidth    Tdep
#       cm-1   cm-1/cm-2        cm-1     cm-1        
 6221.649251   6.337e-32  2095.24290  0.04160  0.8100
 6233.246880   9.198e-32  1990.25180  0.04380  0.8300
 6244.825133   1.236e-31  1896.56380  0.04590  0.8300
 6256.383153   1.523e-31  1814.19390  0.04780  0.8400
 6258.757122   5.081e-32  2340.87400  0.03560  0.8000
 6260.566768   5.772e-32  2339.06430  0.03560  0.8000
 6264.755657   8.515e-32  2213.34780  0.03800  0.8000
 6266.583345   9.784e-32  2211.52010  0.03800  0.8000
 6267.920178   1.698e-31  1743.15520  0.04960  0.8400
 6270.726380   1.335e-31  2097.08890  0.04040  0.8100
 6272.572403   1.555e-31  2095.24290  0.04040  0.8100
 6276.669360   1.951e-31  1992.11660  0.04270  0.8300
 6278.534119   2.312e-31  1990.25180  0.04270  0.8300
 6279.435778   1.665e-31  1683.45840  0.05130  0.8400
 6282.584565   2.646e-31  1898.44780  0.04490  0.8300
 6284.468616   3.205e-31  1896.56380  0.04490  0.8300
 6288.471857   3.307e-31  1816.09810  0.04690  0.8500
 6290.376020   4.123e-31  1814.19390  0.04690  0.8500
 6290.930530   1.349e-31  1635.11130  0.05330  0.8400
 6294.330991   3.767e-31  1745.08080  0.04870  0.8400
 6296.256548   4.884e-31  1743.15520  0.04870  0.8400
 6300.161623   3.832e-31  1685.40760  0.05040  0.8400
 6302.110752   5.261e-31  1683.45840  0.05040  0.8400
 6302.408504   7.378e-32  1598.11610  0.05550  0.8400
 6305.963305   3.342e-31  1637.08820  0.05230  0.8400
 6307.940191   5.025e-31  1635.11130  0.05230  0.8400
 6311.735487   2.242e-31  1600.13050  0.05430  0.8400
 6313.749910   3.992e-31  1598.11610  0.05430  0.8400
 6317.477518   7.058e-32  1574.54060  0.05680  0.8400
 6319.563148   1.928e-31  1572.45490  0.05680  0.8400
 6323.303516   6.618e-32  2479.64670  0.03230  0.7800
 6323.729309   1.197e-31  2340.87400  0.03450  0.8000
 6324.115830   2.034e-31  2213.34780  0.03680  0.8000
 6324.464242   3.243e-31  2097.08890  0.03920  0.8100
 6324.775598   4.842e-31  1992.11660  0.04160  0.8100
 6325.050845   6.749e-31  1898.44780  0.04380  0.8300
 6325.290828   8.749e-31  1816.09810  0.04590  0.8300
 6325.496283   1.048e-30  1745.08080  0.04780  0.8400
 6325.667847   1.149e-30  1685.40760  0.04960  0.8400
 6325.806051   1.131e-30  1637.08820  0.05130  0.8400
 6325.911326   9.611e-31  1600.13050  0.05330  0.8400
 6325.943518   5.832e-32  2211.52010  0.03680  0.8000
 6325.984001   6.184e-31  1574.54060  0.05550  0.8400
 6326.310266   9.426e-32  2095.24290  0.03920  0.8100
 6326.609032   7.153e-32  2094.94410  0.03920  0.8100
 6326.640356   1.431e-31  1990.25180  0.04160  0.8100
 6326.901725   1.052e-31  1989.99040  0.04160  0.8100
 6326.934896   2.037e-31  1896.56380  0.04380  0.8300
 6327.157945   1.438e-31  1896.34070  0.04380  0.8300
 6327.194991   2.714e-31  1814.19390  0.04590  0.8300
 6327.378376   1.819e-31  1814.01050  0.04590  0.8300
 6327.421840   3.376e-31  1743.15520  0.04780  0.8400
 6327.563493   2.108e-31  1743.01360  0.04780  0.8400
 6327.616976   3.906e-31  1683.45840  0.04960  0.8400
 6327.713470   2.206e-31  1683.36190  0.04960  0.8400
 6327.782937   4.188e-31  1635.11130  0.05130  0.8400
 6327.827943   2.025e-31  1635.06630  0.05130  0.8400
 6327.905337   1.527e-31  1598.13650  0.05330  0.8400
 6327.925749   4.149e-31  1598.11610  0.05330  0.8400
 6327.940382   7.671e-32  1572.58420  0.05550  0.8400
 6328.069631   3.861e-31  1572.45490  0.05550  0.8400
 6331.695495   6.822e-31  1560.32260  0.05680  0.8400
 6333.580610   1.758e-31  1558.43750  0.05680  0.8400
 6337.325407   7.965e-31  1574.54060  0.05430  0.8400
 6339.281788   4.150e-31  1572.58420  0.05430  0.8400
 6342.087093   3.520e-31  1558.43750  0.05550  0.8400
 6342.920986   8.760e-31  1600.13050  0.05230  0.8400
 6344.914997   5.688e-31  1598.13650  0.05230  0.8400
 6348.481026   8.831e-31  1637.08820  0.05040  0.8400
 6350.502918   6.399e-31  1635.06630  0.05040  0.8400
 6353.457627   4.313e-31  1572.58420  0.05330  0.8400
 6354.004217   8.200e-31  1685.40760  0.04870  0.8400
 6356.049841   6.347e-31  1683.36190  0.04870  0.8400
 6359.489150   7.055e-31  1745.08080  0.04690  0.8500
 6361.556359   5.707e-31  1743.01360  0.04690  0.8500
 6364.757743   4.740e-31  1598.13650  0.05130  0.8400
 6364.934311   5.652e-31  1816.09810  0.04490  0.8300
 6367.021859   4.718e-31  1814.01050  0.04490  0.8300
 6370.338084   4.229e-31  1898.44780  0.04270  0.8300
 6372.445184   3.615e-31  1896.34070  0.04270  0.8300
 6375.698750   2.963e-31  1992.11660  0.04040  0.8100
 6376.009142   4.751e-31  1635.06630  0.04960  0.8400
 6377.824878   2.581e-31  1989.99040  0.04040  0.8100
 6381.014485   1.948e-31  2097.08890  0.03800  0.8000
 6383.159275   1.722e-31  2094.94410  0.03800  0.8000
 6386.283359   1.204e-31  2213.34780  0.03560  0.8000
 6387.215133   4.387e-31  1683.36190  0.04780  0.8400
 6388.446550   1.077e-31  2211.18460  0.03560  0.8000
 6391.503334   6.995e-32  2340.87400  0.03330  0.7900
 6393.684735   6.324e-32  2338.69260  0.03330  0.7900
 6398.375330   3.757e-31  1743.01360  0.04590  0.8300
 6409.488138   2.999e-31  1814.01050  0.04380  0.8300
 6420.551421   2.237e-31  1896.34070  0.04160  0.8100
 6431.562740   1.564e-31  1989.99040  0.03920  0.8100
 6442.519448   1.026e-31  2094.94410  0.03680  0.8000
 6453.418737   6.332e-32  2211.18460  0.03450  0.8000
 7571.882912   5.871e-32  1803.17380  0.03310  0.7500
 7591.338418   1.429e-31  1606.34830  0.03450  0.7600
 7610.667957   3.275e-31  1420.76310  0.03610  0.7800
 7620.245922   9.200e-32  2961.46770  0.02860  0.7700
 7629.870300   7.063e-31  1246.44870  0.03770  0.7800
 7633.899343   1.974e-31  2789.08210  0.03030  0.7800
 7647.399661   3.988e-31  2627.86900  0.03230  0.7800
 7648.944108   1.432e-30  1083.43320  0.03930  0.7900
 7660.746566   7.571e-31  2477.85490  0.03450  0.8000
 7664.726287   2.735e-29  1803.17380  0.02680  0.7500
 7667.887942   2.724e-30   931.74320  0.04090  0.8000
 7671.567083   5.530e-32  1801.10240  0.02540  0.7400
 7673.939628   1.349e-30  2339.06430  0.03680  0.8000
 7678.189540   8.593e-32  1704.13450  0.02590  0.7500
 7678.636022   6.677e-29  1606.34830  0.02850  0.7600
 7684.778550   1.317e-31  1609.81700  0.02650  0.7500
 7686.700261   4.853e-30   791.40320  0.04250  1.0600
 7686.978310   2.252e-30  2211.52010  0.03920  0.8100
 7691.334093   1.990e-31  1518.15360  0.02720  0.7600
 7692.404571   1.528e-28  1420.76310  0.03050  0.7700
 7693.691687   8.329e-32  3146.71950  0.02650  0.7500
 7695.413709   9.123e-32  3144.99750  0.02650  0.7500
 7697.856145   2.965e-31  1429.14770  0.02790  0.7600
 7698.765966   6.678e-32  1379.73530  0.02860  0.7700
 7699.861972   3.512e-30  2095.24290  0.04160  0.8100
 7701.996270   1.899e-31  2963.20700  0.02790  0.7600
 7703.735579   2.092e-31  2961.46770  0.02790  0.7600
 7704.344675   4.355e-31  1342.80270  0.02860  0.7700
 7705.379431   8.080e-30   662.43590  0.04390  0.8100
 7705.395147   9.780e-32  1293.75980  0.02940  0.7800
 7706.031691   3.306e-28  1246.44870  0.03240  0.7800
 7710.133028   4.082e-31  2790.83880  0.02940  0.7800
 7710.799647   6.307e-31  1259.12210  0.02940  0.7800
 7711.889719   4.523e-31  2789.08210  0.02940  0.7800
 7711.990081   1.411e-31  1210.52400  0.03030  0.7800
 7712.589889   5.096e-30  1990.25180  0.04380  0.8300
 7717.221020   9.002e-31  1178.10890  0.03030  0.7800
 7718.102749   8.262e-31  2629.64320  0.03130  0.7800
 7718.550706   2.006e-31  1130.03120  0.03130  0.7800
 7719.517029   6.741e-28  1083.43320  0.03450  0.7800
 7719.876938   9.219e-31  2627.86900  0.03130  0.7800
 7723.608749   1.266e-30  1099.76630  0.03130  0.7800
 7723.923733   1.253e-29   544.86220  0.04530  0.8700
 7725.076959   2.809e-31  1052.28460  0.03230  0.7800
 7725.161277   6.844e-30  1896.56380  0.04590  0.8300
 7725.906090   1.573e-30  2479.64670  0.03330  0.7900
 7727.697919   1.769e-30  2477.85490  0.03330  0.7900
 7729.962780   1.756e-30  1024.09730  0.03230  0.7800
 7731.568770   3.875e-31   977.28720  0.03330  0.7900
 7732.860129   1.287e-27   931.74320  0.03650  0.7900
 7733.543581   2.811e-30  2340.87400  0.03560  0.8000
 7735.353227   3.193e-30  2339.06430  0.03560  0.8000
 7736.283058   2.398e-30   951.10490  0.03330  0.7900
 7737.575337   8.434e-30  1814.19390  0.04780  0.8400
 7738.026063   5.262e-31   905.04200  0.03450  0.8000
 7741.015625   4.712e-30  2213.34780  0.03800  0.8000
 7742.331379   1.799e-29   438.70100  0.04660  0.6200
 7742.569519   3.226e-30   880.79170  0.03450  0.8000
 7742.843312   5.413e-30  2211.52010  0.03800  0.8000
 7744.448759   7.036e-31   835.55180  0.03560  0.8000
 7746.060434   2.305e-27   791.40320  0.03860  0.8000
 7748.322502   7.386e-30  2097.08890  0.04040  0.8100
 7748.822097   4.276e-30   813.16040  0.03560  0.8000
 7749.831359   9.399e-30  1743.15520  0.04960  0.8400
 7750.123197   2.151e-29  2012.89140  0.02450  0.7300
 7750.168526   8.604e-30  2095.24290  0.04040  0.8100
 7750.836772   9.261e-31   768.81940  0.03680  0.8000
 7751.806837   2.347e-29  2011.20780  0.02450  0.7300
 7755.040720   5.579e-30   748.21380  0.03680  0.8000
 7755.464374   1.079e-29  1992.11660  0.04270  0.8300
 7757.190015   1.199e-30   704.84740  0.03800  0.8000
 7757.329132   1.279e-29  1990.25180  0.04270  0.8300
 7758.635763   5.585e-29  1804.87460  0.02600  0.7400
 7758.779565   7.214e-32  1902.41670  0.02450  0.7300
 7759.117293   3.884e-27   662.43590  0.04060  0.8100
 7760.336532   6.067e-29  1803.17380  0.02600  0.7400
 7760.479278   7.837e-32  1900.71700  0.02450  0.7300
 7760.600531   2.377e-29   343.96940  0.04790  0.8500
 7760.918373   5.485e-32  1802.59200  0.03170  0.7400
 7761.225310   7.166e-30   685.95420  0.03800  0.8000
 7761.928955   9.215e-30  1683.45840  0.05130  0.8400
 7762.441282   1.464e-29  1898.44780  0.04490  0.8300
 7762.817979   1.137e-31  1802.81020  0.02490  0.7400
 7763.508391   1.528e-30   643.63820  0.03920  0.8100
 7764.325333   1.773e-29  1896.56380  0.04490  0.8300
 7764.525753   1.238e-31  1801.10240  0.02490  0.7400
 7766.819120   1.767e-31  1705.85040  0.02540  0.7400
 7766.990507   1.361e-28  1608.06620  0.02760  0.7500
 7767.375786   9.057e-30   626.38400  0.03920  0.8100
 7768.534971   1.928e-31  1704.13450  0.02540  0.7400
 7768.708475   1.486e-28  1606.34830  0.02760  0.7500
 7769.253154   1.830e-29  1816.09810  0.04690  0.8500
 7769.255434   1.339e-31  1605.80130  0.03310  0.7500
 7769.791805   1.915e-30   585.19430  0.04040  0.8100
 7770.783084   2.710e-31  1611.54100  0.02590  0.7500
 7771.121860   6.143e-32  1561.61730  0.02650  0.7500
 7771.157317   2.281e-29  1814.19390  0.04690  0.8500
 7772.029971   6.067e-27   544.86220  0.04240  0.8100
 7772.507025   2.963e-31  1609.81700  0.02590  0.7500
 7772.847325   6.730e-32  1559.89180  0.02650  0.7500
 7773.492062   1.126e-29   569.50550  0.04040  0.8100
 7773.868732   7.464e-30  1635.11130  0.05330  0.8400
 7774.709959   4.096e-31  1519.88560  0.02650  0.7500
 7775.115906   9.267e-32  1470.18100  0.02720  0.7600
 7775.188271   3.139e-28  1422.49840  0.02940  0.7600
 7775.899802   2.084e-29  1745.08080  0.04870  0.8400
 7776.040154   2.358e-30   529.51810  0.04160  0.8100
 7776.442007   4.491e-31  1518.15360  0.02650  0.7500
 7776.849734   1.018e-31  1468.44720  0.02720  0.7600
 7776.923520   3.435e-28  1420.76310  0.02940  0.7600
 7777.435478   3.082e-31  1420.25120  0.03450  0.7600
 7777.825359   2.701e-29  1743.15520  0.04870  0.8400
 7778.599828   6.107e-31  1430.88780  0.02720  0.7600
 7778.729357   2.855e-29   260.68240  0.04930  0.7400
 7779.072220   1.378e-31  1381.47760  0.02790  0.7600
 7779.574050   1.377e-29   515.32080  0.04160  0.8100
 7780.340002   6.713e-31  1429.14770  0.02720  0.7600
 7780.814430   1.518e-31  1379.73530  0.02790  0.7600
 7782.253333   2.853e-30   476.61150  0.04270  0.8300
 7782.380926   2.120e-29  1685.40760  0.05040  0.8400
 7782.389224   7.715e-32  3341.34610  0.02490  0.7400
 7782.452769   8.977e-31  1344.55110  0.02790  0.7600
 7782.990864   2.019e-31  1295.51040  0.02860  0.7700
 7783.229783   6.805e-28  1248.20130  0.03140  0.7700
 7784.201087   9.896e-31  1342.80270  0.02790  0.7600
 7784.330055   2.909e-29  1683.45840  0.05040  0.8400
 7784.741480   2.231e-31  1293.75980  0.02860  0.7700
 7784.797658   8.860e-27   438.70100  0.04430  0.8300
 7784.982411   7.511e-28  1246.44870  0.03140  0.7700
 7785.402178   1.875e-31  3146.71950  0.02590  0.7500
 7785.459219   6.681e-31  1245.97190  0.03610  0.7800
 7785.621655   1.655e-29   463.83210  0.04270  0.8300
 7785.654784   4.080e-30  1598.11610  0.05550  0.8400
 7786.268852   1.301e-30  1260.87860  0.02860  0.7700
 7786.871898   2.916e-31  1212.28310  0.02940  0.7800
 7787.124200   5.131e-32  3144.99750  0.02590  0.7500
 7788.025337   1.438e-30  1259.12210  0.02860  0.7700
 7788.230074   4.303e-31  2963.20700  0.02720  0.7600
 7788.431236   3.390e-30   426.47680  0.04380  0.8300
 7788.630944   3.232e-31  1210.52400  0.02940  0.7800
 7788.696114   1.848e-29  1637.08820  0.05230  0.8400
 7789.969382   1.184e-31  2961.46770  0.02720  0.7600
 7790.048145   1.858e-30  1179.87360  0.02940  0.7800
 7790.483190   9.995e-32  2960.95390  0.02720  0.7600
 7790.672999   2.778e-29  1635.11130  0.05230  0.8400
 7790.715374   4.149e-31  1131.79870  0.03030  0.7800
 7790.874833   9.315e-31  2790.83880  0.02860  0.7700
 7791.115656   1.387e-27  1085.20330  0.03340  0.7800
 7791.634783   1.953e-29   415.04130  0.04380  0.8300
 7791.812820   2.061e-30  1178.10890  0.02940  0.7800
 7792.482878   4.615e-31  1130.03120  0.03030  0.7800
 7792.631524   2.578e-31  2789.08210  0.02860  0.7700
 7792.885779   1.541e-27  1083.43320  0.03340  0.7800
 7793.110135   2.151e-31  2788.60350  0.02860  0.7700
 7793.327255   1.363e-30  1082.99170  0.03770  0.7800
 7793.338240   1.901e-30  2629.64320  0.03030  0.7800
 7793.790708   2.617e-30  1101.53920  0.03030  0.7800
 7794.521341   5.816e-31  1054.06060  0.03130  0.7800
 7794.573754   3.951e-30   379.11590  0.04490  0.8300
 7794.844845   1.240e-29  1600.13050  0.05430  0.8400
 7795.112429   5.297e-31  2627.86900  0.03030  0.7800
 7795.555666   4.361e-31  2627.42580  0.03030  0.7800
 7795.563598   2.913e-30  1099.76630  0.03030  0.7800
 7795.621947   3.654e-30  2479.64670  0.03230  0.7800
 7796.297332   6.493e-31  1052.28460  0.03130  0.7800
 7796.716124   3.049e-29   188.85310  0.05080  0.8000
 7796.859268   2.206e-29  1598.11610  0.05430  0.8400
 7797.413776   1.026e-30  2477.85490  0.03230  0.7800
 7797.419502   1.191e-26   343.96940  0.04600  0.8300
 7797.496595   3.631e-30  1025.87850  0.03130  0.7800
 7797.613337   2.263e-29   368.95010  0.04490  0.8300
 7797.727475   6.608e-30  2340.87400  0.03450  0.8000
 7797.821414   8.320e-31  2477.44730  0.03230  0.7800
 7798.289839   8.031e-31   979.07170  0.03230  0.7800
 7798.846390   2.651e-27   933.53090  0.03550  0.7900
 7799.277729   4.057e-30  1024.09730  0.03130  0.7800
 7799.537120   1.874e-30  2339.06430  0.03450  0.8000
 7799.656219   1.123e-29  2213.34780  0.03680  0.8000
 7799.908876   1.492e-30  2338.69260  0.03450  0.8000
 7800.074352   9.001e-31   977.28720  0.03230  0.7800
 7800.634154   2.985e-27   931.74320  0.03550  0.7900
 7800.680780   4.514e-30   334.53050  0.04590  0.8300
 7800.826489   3.903e-30  1574.54060  0.05680  0.8400
 7801.040067   2.612e-30   931.33730  0.03930  0.7900
 7801.165856   4.966e-30   952.89430  0.03230  0.7800
 7801.409450   1.791e-29  2097.08890  0.03920  0.8100
 7801.483906   3.221e-30  2211.52010  0.03680  0.8000
 7801.819410   2.509e-30  2211.18460  0.03680  0.8000
 7802.020905   1.092e-30   906.83510  0.03330  0.7900
 7802.912119   1.065e-29  1572.45490  0.05680  0.8400
 7802.955266   5.569e-30   951.10490  0.03230  0.7800
 7802.988319   2.675e-29  1992.11660  0.04160  0.8100
 7803.255474   5.206e-30  2095.24290  0.03920  0.8100
 7803.554240   3.951e-30  2094.94410  0.03920  0.8100
 7803.557218   2.570e-29   325.56040  0.04590  0.8300
 7803.813978   1.229e-30   905.04200  0.03330  0.7900
 7804.393854   3.729e-29  1898.44780  0.04380  0.8300
 7804.798534   6.690e-30   882.58940  0.03330  0.7900
 7804.853077   7.905e-30  1990.25180  0.04160  0.8100
 7805.114446   5.811e-30  1989.99040  0.04160  0.8100
 7805.626971   4.835e-29  1816.09810  0.04590  0.8300
 7805.714569   1.463e-30   837.35350  0.03450  0.8000
 7806.277905   1.125e-29  1896.56380  0.04380  0.8300
 7806.422378   4.783e-27   793.20870  0.03760  0.8000
 7806.500954   7.948e-30  1896.34070  0.04380  0.8300
 7806.596254   7.536e-30   880.79170  0.03330  0.7900
 7806.688467   5.793e-29  1745.08080  0.04780  0.8400
 7806.752207   5.050e-30   292.72250  0.04690  0.8500
 7807.516244   1.654e-30   835.55180  0.03450  0.8000
 7807.531134   1.500e-29  1814.19390  0.04590  0.8300
 7807.579029   6.350e-29  1685.40760  0.04960  0.8400
 7807.714519   1.005e-29  1814.01050  0.04590  0.8300
 7808.227962   5.425e-27   791.40320  0.03760  0.8000
 7808.299228   6.254e-29  1637.08820  0.05130  0.8400
 7808.394667   8.878e-30   814.96650  0.03450  0.8000
 7808.598019   4.699e-30   791.03310  0.04090  0.8000
 7808.614024   1.865e-29  1743.15520  0.04780  0.8400
 7808.755677   1.165e-29  1743.01360  0.04780  0.8400
 7808.849528   5.313e-29  1600.13050  0.05330  0.8400
 7809.230282   3.419e-29  1574.54060  0.05550  0.8400
 7809.370858   1.928e-30   770.62970  0.03560  0.8000
 7809.466332   2.860e-29   284.87380  0.04690  0.8500
 7809.528158   2.158e-29  1683.45840  0.04960  0.8400
 7809.624652   1.220e-29  1683.36190  0.04960  0.8400
 7809.894649   1.473e-26   260.68240  0.04770  0.8400
 7810.200737   1.005e-29   813.16040  0.03450  0.8000
 7810.276113   2.314e-29  1635.11130  0.05130  0.8400
 7810.321120   1.120e-29  1635.06630  0.05130  0.8400
 7810.843539   8.445e-30  1598.13650  0.05330  0.8400
 7810.863951   2.292e-29  1598.11610  0.05330  0.8400
 7811.181181   2.191e-30   768.81940  0.03560  0.8000
 7811.186663   4.242e-30  1572.58420  0.05550  0.8400
 7811.315912   2.133e-29  1572.45490  0.05550  0.8400
 7811.954287   1.160e-29   750.02830  0.03560  0.8000
 7812.787935   5.522e-30   253.69340  0.04780  0.8400
 7812.989789   2.502e-30   706.66640  0.03680  0.8000
 7813.768752   1.320e-29   748.21380  0.03560  0.8000
 7813.843902   8.057e-27   664.25950  0.03960  0.8000
 7814.559447   2.772e-29   128.49200  0.05260  0.8600
 7814.808815   2.859e-30   704.84740  0.03680  0.8000
 7815.044466   3.771e-29  1560.32260  0.05680  0.8400
 7815.340588   3.112e-29   246.89180  0.04780  0.8400
 7815.477420   1.493e-29   687.77710  0.03680  0.8000
 7815.667537   9.245e-27   662.43590  0.03960  0.8000
 7816.001358   7.918e-30   662.10210  0.04250  1.0600
 7816.571377   3.195e-30   645.46600  0.03800  0.8000
 7816.929581   9.723e-30  1558.43750  0.05680  0.8400
 7817.300330   1.708e-29   685.95420  0.03680  0.8000
 7818.399167   3.672e-30   643.63820  0.03800  0.8000
 7818.787875   5.891e-30   217.44460  0.04870  0.8400
 7818.964089   1.891e-29   628.21540  0.03800  0.8000
 7820.115631   4.012e-30   587.03100  0.03920  0.8100
 7820.434765   4.402e-29  1574.54060  0.05430  0.8400
 7820.795499   2.176e-29   626.38400  0.03800  0.8000
 7821.111136   1.268e-26   546.70420  0.04150  0.8100
 7821.179903   3.305e-29   211.61580  0.04870  0.8400
 7821.952254   4.643e-30   585.19430  0.03920  0.8100
 7822.222347   1.637e-26   188.85310  0.04950  0.8400
 7822.391147   2.294e-29  1572.58420  0.05430  0.8400
 7822.414306   2.357e-29   571.34550  0.03920  0.8100
 7822.953124   1.473e-26   544.86220  0.04150  0.8100
 7823.250208   1.247e-29   544.56510  0.04390  0.8100
 7823.622552   4.955e-30   531.36360  0.04040  0.8100
 7824.254284   2.731e-29   569.50550  0.03920  0.8100
 7824.751954   6.115e-30   183.97760  0.04960  0.8400
 7825.333374   1.947e-29  1558.43750  0.05550  0.8400
 7825.468090   5.776e-30   529.51810  0.04040  0.8100
 7825.653795   4.840e-29  1600.13050  0.05230  0.8400
 7825.828083   2.890e-29   517.16950  0.04040  0.8100
 7826.984213   3.416e-29   179.04700  0.04960  0.8400
 7827.092137   6.015e-30   478.46610  0.04160  0.8100
 7827.647806   3.143e-29  1598.13650  0.05230  0.8400
 7827.676704   3.373e-29   515.32080  0.04040  0.8100
 7828.224149   1.862e-26   440.56180  0.04330  0.8300
 7828.946685   7.069e-30   476.61150  0.04160  0.8100
 7829.205424   3.484e-29   465.68950  0.04160  0.8100
 7830.084897   2.208e-26   438.70100  0.04330  0.8300
 7830.344567   1.828e-29   438.44130  0.04530  0.8700
 7830.524379   7.174e-30   428.34050  0.04270  0.8300
 7830.680130   6.152e-30   153.29350  0.05040  0.8400
 7830.700328   4.878e-29  1637.08820  0.05040  0.8400
 7831.062775   4.099e-29   463.83210  0.04160  0.8100
 7832.258978   1.912e-29    79.60700  0.05480  1.0100
 7832.388047   8.508e-30   426.47680  0.04270  0.8300
 7832.546325   4.128e-29   416.90750  0.04270  0.8300
 7832.722220   3.535e-29  1635.06630  0.05040  0.8400
 7832.753480   3.423e-29   149.18650  0.05040  0.8400
 7833.919263   8.399e-30   380.98880  0.04380  0.8300
 7834.402193   1.611e-26   128.49200  0.05150  0.8400
 7834.412511   4.902e-29   415.04130  0.04270  0.8300
 7835.182904   2.542e-26   345.84950  0.04520  0.8300
 7835.573028   4.528e-29  1685.40760  0.04870  0.8400
 7835.792184   1.006e-29   379.11590  0.04380  0.8300
 7835.850780   4.803e-29   370.82530  0.04380  0.8300
 7836.395829   2.383e-29  1572.58420  0.05330  0.8400
 7836.572415   5.964e-30   125.39340  0.05130  0.8400
 7837.062985   3.069e-26   343.96940  0.04520  0.8300
 7837.276769   9.647e-30   336.41290  0.04490  0.8300
 7837.284291   2.485e-29   343.74810  0.04660  0.6200
 7837.618651   3.505e-29  1683.36190  0.04870  0.8400
 7837.725924   5.763e-29   368.95010  0.04380  0.8300
 7838.487714   3.307e-29   122.03550  0.05130  0.8400
 7839.118776   5.485e-29   327.44470  0.04490  0.8300
 7839.159101   1.169e-29   334.53050  0.04490  0.8300
 7840.270447   3.895e-29  1745.08080  0.04690  0.8500
 7840.596871   1.086e-29   294.61440  0.04590  0.8300
 7841.003027   6.658e-29   325.56040  0.04490  0.8300
 7841.987260   3.181e-26   262.58270  0.04690  0.8300
 7842.337657   3.151e-29  1743.01360  0.04690  0.8500
 7842.350295   6.141e-29   286.76740  0.04590  0.8300
 7842.428907   5.523e-30   100.27800  0.05230  0.8400
 7842.488809   1.334e-29   292.72250  0.04590  0.8300
 7843.879539   1.197e-29   255.59520  0.04690  0.8500
 7843.887515   3.980e-26   260.68240  0.04690  0.8300
 7844.069074   3.109e-29   260.50090  0.04790  0.8500
 7844.187009   3.053e-29    97.59450  0.05230  0.8400
 7844.243832   7.555e-29   284.87380  0.04590  0.8300
 7844.791027   3.119e-29  1816.09810  0.04490  0.8300
 7845.545310   6.733e-29   248.79480  0.04690  0.8500
 7845.781322   1.493e-29   253.69340  0.04690  0.8500
 7846.434817   1.310e-26    79.60700  0.05350  0.8400
 7846.878575   2.604e-29  1814.01050  0.04490  0.8300
 7847.124736   1.289e-29   219.35660  0.04780  0.8400
 7847.250920   2.618e-29  1598.13650  0.05130  0.8400
 7847.448358   8.413e-29   246.89180  0.04690  0.8500
 7848.249871   4.811e-30    77.94790  0.05330  0.8400
 7848.636972   3.627e-26   190.77480  0.04860  0.8400
 7848.703794   7.218e-29   213.52860  0.04780  0.8400
 7849.036665   1.637e-29   217.44460  0.04780  0.8400
 7849.133097   2.333e-29  1898.44780  0.04270  0.8300
 7849.817963   5.962e-30    42.20010  0.05750  0.8700
 7849.851611   2.653e-29    75.86420  0.05330  0.8400
 7850.332420   1.354e-29   185.90010  0.04870  0.8400
 7850.558718   4.719e-26   188.85310  0.04860  0.8400
 7850.616633   9.184e-29   211.61580  0.04780  0.8400
 7850.698403   3.537e-29   188.71340  0.04930  0.7400
 7850.831357   1.721e-29  2232.08280  0.02250  0.7200
 7851.240197   1.995e-29  1896.34070  0.04270  0.8300
 7851.825709   7.550e-29   180.96990  0.04870  0.8400
 7852.254882   1.757e-29   183.97760  0.04870  0.8400
 7853.294873   1.634e-29  1992.11660  0.04040  0.8100
 7853.502543   1.384e-29   155.22700  0.04960  0.8400
 7853.748701   9.815e-29   179.04700  0.04870  0.8400
 7853.962811   6.182e-32  2109.55430  0.02340  0.7200
 7854.008511   4.751e-29  2012.89140  0.02380  0.7300
 7854.035891   3.834e-30    58.40320  0.05430  0.8400
 7854.911014   7.685e-29   151.12020  0.04960  0.8400
 7855.131692   3.691e-26   130.43750  0.05040  0.8400
 7855.421000   1.424e-29  1989.99040  0.04040  0.8100
 7855.436045   1.843e-29   153.29350  0.04960  0.8400
 7855.478787   1.003e-31  2004.66600  0.02380  0.7200
 7855.482063   2.110e-29    56.84470  0.05430  0.8400
 7856.635051   1.370e-29   127.33860  0.05040  0.8400
 7856.844633   1.025e-28   149.18650  0.04960  0.8400
 7856.953133   1.607e-31  1902.41670  0.02410  0.7300
 7857.008703   1.236e-28  1804.87460  0.02520  0.7400
 7857.077167   5.072e-26   128.49200  0.05040  0.8400
 7857.171455   3.583e-29   128.39770  0.05080  0.8000
 7857.274453   1.074e-29  2097.08890  0.03800  0.8000
 7857.920323   2.623e-29  1635.06630  0.04960  0.8400
 7857.959663   7.581e-29   123.98030  0.05040  0.8400
 7858.324446   7.158e-27    42.20010  0.05600  0.8400
 7858.386065   2.538e-31  1802.81020  0.02450  0.7300
 7858.525316   5.787e-32  1752.67390  0.02490  0.7400
 7858.580281   1.883e-29   125.39340  0.05040  0.8400
 7858.709473   3.370e-29  1803.17380  0.02520  0.7400
 7859.291314   2.902e-29  1802.59200  0.02520  0.7400
 7859.419243   9.497e-30  2094.94410  0.03800  0.8000
 7859.729886   1.307e-29   102.23590  0.05130  0.8400
 7859.777791   3.955e-31  1705.85040  0.02490  0.7400
 7859.788232   2.623e-30    41.64330  0.05550  0.8400
 7859.833882   3.027e-28  1608.06620  0.02680  0.7500
 7859.904549   1.044e-28   122.03550  0.05040  0.8400
 7859.911326   9.008e-32  1655.78280  0.02540  0.7400
 7860.093840   6.903e-32  1801.10240  0.02450  0.7300
 7860.660941   5.959e-32  1800.53530  0.02450  0.7300
 7860.971603   7.205e-29    99.55160  0.05130  0.8400
 7861.069818   6.634e-30  2213.34780  0.03560  0.8000
 7861.079546   1.441e-29    40.53530  0.05550  0.8400
 7861.128515   6.079e-31  1611.54100  0.02540  0.7400
 7861.255544   1.382e-31  1561.61730  0.02590  0.7500
 7861.470972   3.242e-26    81.58050  0.05250  0.8400
 7861.493641   1.078e-31  1704.13450  0.02490  0.7400
 7861.551850   8.282e-29  1606.34830  0.02680  0.7500
 7861.687804   1.868e-29   100.27800  0.05130  0.8400
 7862.044346   9.266e-32  1703.58380  0.02490  0.7400
 7862.098809   7.094e-29  1605.80130  0.02680  0.7500
 7862.438434   9.217e-31  1519.88560  0.02590  0.7500
 7862.485875   7.030e-28  1422.49840  0.02850  0.7600
 7862.558162   2.092e-31  1470.18100  0.02650  0.7500
 7862.786983   1.189e-29    79.91990  0.05230  0.8400
 7862.852455   1.661e-31  1609.81700  0.02540  0.7400
 7862.928651   1.033e-28    97.59450  0.05130  0.8400
 7863.233009   5.937e-30  2211.18460  0.03560  0.8000
 7863.386744   1.421e-31  1609.28280  0.02540  0.7400
 7863.444477   4.847e-26    79.60700  0.05250  0.8400
 7863.486859   3.097e-29    79.56460  0.05260  0.8600
 7863.707742   1.378e-30  1430.88780  0.02650  0.7500
 7863.819363   3.121e-31  1381.47760  0.02720  0.7600
 7863.946775   6.539e-29    77.83480  0.05230  0.8400
 7864.170483   2.524e-31  1518.15360  0.02590  0.7500
 7864.221124   1.929e-28  1420.76310  0.02850  0.7600
 7864.291989   5.741e-32  1468.44720  0.02650  0.7500
 7864.678828   3.855e-30  2340.87400  0.03330  0.7900
 7864.688331   2.150e-31  1517.63570  0.02590  0.7500
 7864.733082   1.637e-28  1420.25120  0.02850  0.7600
 7864.758993   1.791e-29    77.94790  0.05230  0.8400
 7864.936626   2.032e-30  1344.55110  0.02720  0.7600
 7864.966397   1.528e-27  1248.20130  0.03050  0.7700
 7865.039328   4.589e-31  1295.51040  0.02790  0.7600
 7865.447916   3.785e-31  1429.14770  0.02650  0.7500
 7865.561573   8.587e-32  1379.73530  0.02720  0.7600
 7865.806271   1.018e-29    60.39150  0.05330  0.8400
 7865.917296   9.876e-29    75.86420  0.05230  0.8400
 7865.949299   3.206e-31  1428.64630  0.02650  0.7500
 7866.059102   7.245e-32  1379.23780  0.02720  0.7600
 7866.125265   2.956e-30  1260.87860  0.02790  0.7600
 7866.218230   6.652e-31  1212.28310  0.02860  0.7700
 7866.684944   5.597e-31  1342.80270  0.02720  0.7600
 7866.719024   4.237e-28  1246.44870  0.03050  0.7700
 7866.789944   1.266e-31  1293.75980  0.02790  0.7600
 7866.860230   3.485e-30  2338.69260  0.03330  0.7900
 7866.885116   5.580e-29    58.83070  0.05330  0.8400
 7867.169832   4.716e-31  1342.31780  0.02720  0.7600
 7867.195833   3.531e-28  1245.97190  0.03050  0.7700
 7867.270466   1.062e-31  1293.27930  0.02790  0.7600
 7867.273835   4.238e-30  1179.87360  0.02860  0.7700
 7867.277047   3.152e-27  1085.20330  0.03240  0.7800
 7867.356237   9.502e-31  1131.79870  0.02940  0.7800
 7867.654259   2.180e-26    44.21170  0.05470  0.8400
 7867.794547   1.643e-29    58.40320  0.05330  0.8400
 7867.881750   8.163e-31  1259.12210  0.02790  0.7600
 7867.977276   1.842e-31  1210.52400  0.02860  0.7700
 7868.099223   2.109e-30  2479.64670  0.03130  0.7800
 7868.350111   6.838e-31  1258.65370  0.02790  0.7600
 7868.382507   5.992e-30  1101.53920  0.02940  0.7800
 7868.407317   2.420e-29  1683.36190  0.04780  0.8400
 7868.440753   1.535e-31  1210.06060  0.02860  0.7700
 7868.453512   1.338e-30  1054.06060  0.03030  0.7800
 7868.787675   7.950e-30    43.65150  0.05430  0.8400
 7868.871136   9.042e-29    56.84470  0.05330  0.8400
 7869.038510   1.174e-30  1178.10890  0.02860  0.7700
 7869.047170   8.795e-28  1083.43320  0.03240  0.7800
 7869.123741   2.640e-31  1130.03120  0.02940  0.7800
 7869.419311   6.099e-27   933.53090  0.03450  0.7800
 7869.451444   8.351e-30  1025.87850  0.03030  0.7800
 7869.488646   7.255e-28  1082.99170  0.03240  0.7800
 7869.490310   9.776e-31  1177.65710  0.02860  0.7700
 7869.510212   1.856e-30   979.07170  0.03130  0.7800
 7869.570131   2.187e-31  1129.58480  0.02940  0.7800
 7869.642000   2.039e-29    42.22400  0.05480  1.0100
 7869.665852   3.852e-26    42.20010  0.05470  0.8400
 7869.786555   4.351e-29    42.54020  0.05430  0.8400
 7870.155397   1.666e-30  1099.76630  0.02940  0.7800
 7870.229504   3.730e-31  1052.28460  0.03030  0.7800
 7870.298691   1.923e-30  2477.44730  0.03130  0.7800
 7870.480805   1.147e-29   952.89430  0.03130  0.7800
 7870.526487   2.537e-30   906.83510  0.03230  0.7800
 7870.590595   1.378e-30  1099.33110  0.02940  0.7800
 7870.658758   3.068e-31  1051.85540  0.03030  0.7800
 7870.795848   1.418e-29    41.64330  0.05430  0.8400
 7871.207074   1.721e-27   931.74320  0.03450  0.7800
 7871.232578   2.330e-30  1024.09730  0.03030  0.7800
 7871.294725   5.195e-31   977.28720  0.03130  0.7800
 7871.328615   1.087e-30  2629.64320  0.02940  0.7800
 7871.394565   1.114e-26   793.20870  0.03650  0.7900
 7871.470741   1.554e-29   882.58940  0.03230  0.7800
 7871.502484   3.416e-30   837.35350  0.03330  0.7900
 7871.612987   1.390e-27   931.33730  0.03450  0.7800
 7871.651130   1.914e-30  1023.67880  0.03030  0.7800
 7871.706790   4.241e-31   976.87520  0.03130  0.7800
 7871.731113   5.319e-30    29.70040  0.05550  0.8400
 7871.791460   7.794e-29    40.53530  0.05430  0.8400
 7872.270214   3.213e-30   951.10490  0.03130  0.7800
 7872.319560   7.130e-31   905.04200  0.03230  0.7800
 7872.421401   2.073e-29   814.96650  0.03330  0.7900
 7872.438343   4.532e-30   770.62970  0.03450  0.8000
 7872.651017   2.906e-29    28.96380  0.05550  0.8400
 7872.672070   2.619e-30   950.70300  0.03130  0.7800
 7872.714375   5.774e-31   904.64720  0.03230  0.7800
 7873.200149   3.152e-27   791.40320  0.03650  0.7900
 7873.204075   1.904e-26   664.25950  0.03860  0.8000
 7873.268462   4.370e-30   880.79170  0.03230  0.7800
 7873.304159   9.645e-31   835.55180  0.03330  0.7900
 7873.332926   2.726e-29   750.02830  0.03450  0.8000
 7873.334198   5.920e-30   706.66640  0.03560  0.8000
 7873.546042   9.990e-31  2627.42580  0.02940  0.7800
 7873.570206   2.513e-27   791.03310  0.03650  0.7900
 7873.653565   3.533e-30   880.40660  0.03230  0.7800
 7873.680901   6.869e-27    18.33720  0.05760  0.8400
 7873.681656   7.742e-31   835.17430  0.03330  0.7900
 7873.765962   1.108e-29    27.66560  0.05550  0.8400
 7874.190178   7.614e-30   645.46600  0.03680  0.8000
 7874.205452   3.532e-29   687.77710  0.03560  0.8000
 7874.227472   5.858e-30   813.16040  0.03330  0.7900
 7874.248667   1.286e-30   768.81940  0.03450  0.8000
 7874.364489   5.289e-31  2790.83880  0.02790  0.7600
 7874.595759   4.695e-30   812.79220  0.03330  0.7900
 7874.608768   1.022e-30   768.45930  0.03450  0.8000
 7874.636499   2.497e-30    18.53890  0.05680  0.8400
 7874.681126   6.083e-29    26.93370  0.05550  0.8400
 7874.848999   3.056e-26   546.70420  0.04060  0.8100
 7875.006407   9.642e-30   587.03100  0.03800  0.8000
 7875.027710   5.457e-27   662.43590  0.03860  0.8000
 7875.039108   4.507e-29   628.21540  0.03680  0.8000
 7875.147391   7.741e-30   748.21380  0.03450  0.8000
 7875.153224   1.688e-30   704.84740  0.03560  0.8000
 7875.361531   4.269e-27   662.10210  0.03860  0.8000
 7875.478422   1.362e-29    18.10210  0.05680  0.8400
 7875.495842   1.329e-30   704.50470  0.03560  0.8000
 7875.498791   6.145e-30   747.86240  0.03450  0.8000
 7875.630469   6.129e-30    16.38760  0.05750  0.8700
 7875.765218   1.862e-26    16.25290  0.05760  0.8400
 7875.783001   1.202e-29   531.36360  0.03920  0.8100
 7875.834020   5.664e-29   571.34550  0.03800  0.8000
 7876.017968   2.185e-30   643.63820  0.03680  0.8000
 7876.028361   1.008e-29   685.95420  0.03560  0.8000
 7876.330387   4.590e-26   440.56180  0.04240  0.8100
 7876.343001   1.700e-30   643.31320  0.03680  0.8000
 7876.362791   7.921e-30   685.61970  0.03560  0.8000
 7876.520074   1.474e-29   478.46610  0.04040  0.8100
 7876.590305   7.007e-29   517.16950  0.03920  0.8100
 7876.599791   4.889e-31  2788.60350  0.02790  0.7600
 7876.690986   8.892e-27   544.86220  0.04060  0.8100
 7876.713122   6.844e-30    16.46230  0.05680  0.8400
 7876.843030   2.784e-30   585.19430  0.03800  0.8000
 7876.870519   1.294e-29   626.38400  0.03680  0.8000
 7876.988071   6.741e-27   544.56510  0.04060  0.8100
 7877.150362   2.140e-30   584.88700  0.03800  0.8000
 7877.187885   1.005e-29   626.06660  0.03680  0.8000
 7877.204197   2.427e-31  2963.20700  0.02650  0.7500
 7877.217732   1.777e-29   428.34050  0.04160  0.8100
 7877.308078   8.534e-29   465.68950  0.04040  0.8100
 7877.547800   3.760e-29    16.03270  0.05680  0.8400
 7877.628540   3.495e-30   529.51810  0.03920  0.8100
 7877.649184   6.420e-26   345.84950  0.04430  0.8300
 7877.673997   1.637e-29   569.50550  0.03800  0.8000
 7877.876075   2.108e-29   380.98880  0.04270  0.8300
 7877.918036   2.649e-30   529.22860  0.03920  0.8100
 7877.974192   1.256e-29   569.20530  0.03800  0.8000
 7877.987445   1.023e-28   416.90750  0.04160  0.8100
 7878.191135   1.355e-26   438.70100  0.04240  0.8100
 7878.374622   4.319e-30   476.61150  0.04040  0.8100
 7878.438925   2.040e-29   515.32080  0.03920  0.8100
 7878.450804   9.983e-27   438.44130  0.04240  0.8100
 7878.495198   2.457e-29   336.41290  0.04380  0.8300
 7878.628508   1.205e-28   370.82530  0.04270  0.8300
 7878.646125   3.225e-30   476.34000  0.04040  0.8100
 7878.711474   2.072e-29  1743.01360  0.04590  0.8300
 7878.721822   1.543e-29   515.03800  0.03920  0.8100
 7878.806231   8.378e-26   262.58270  0.04600  0.8300
 7879.075193   2.813e-29   294.61440  0.04490  0.8300
 7879.081400   5.256e-30   426.47680  0.04160  0.8100
 7879.165429   2.504e-29   463.83210  0.04040  0.8100
 7879.231364   1.397e-28   327.44470  0.04380  0.8300
 7879.334726   3.859e-30   426.22350  0.04160  0.8100
 7879.430882   1.866e-29   463.56670  0.04040  0.8100
 7879.457314   2.257e-31  2960.95390  0.02650  0.7500
 7879.529265   1.945e-26   343.96940  0.04430  0.8300
 7879.616141   3.162e-29   255.59520  0.04590  0.8300
 7879.748995   6.296e-30   379.11590  0.04270  0.8300
 7879.750570   1.371e-26   343.74810  0.04430  0.8300
 7879.796103   1.591e-28   286.76740  0.04490  0.8300
 7879.802264   1.008e-25   190.77480  0.04770  0.8400
 7879.844958   1.052e-31  3146.71950  0.02540  0.7400
 7879.853630   3.028e-29   415.04130  0.04160  0.8100
 7879.983925   4.535e-30   378.88090  0.04270  0.8300
 7880.101468   2.218e-29   414.79340  0.04160  0.8100
 7880.118123   3.485e-29   219.35660  0.04690  0.8500
 7880.322810   1.779e-28   248.79480  0.04590  0.8300
 7880.377531   7.421e-30   334.53050  0.04380  0.8300
 7880.503652   3.605e-29   368.95010  0.04270  0.8300
 7880.581211   3.764e-29   185.90010  0.04780  0.8400
 7880.593801   5.233e-30   334.31420  0.04380  0.8300
 7880.637916   1.107e-25   130.43750  0.04950  0.8400
 7880.706486   2.597e-26   260.68240  0.04600  0.8300
 7880.733670   2.590e-29   368.72010  0.04270  0.8300
 7880.811564   1.951e-28   213.52860  0.04690  0.8500
 7880.888045   1.737e-26   260.50090  0.04600  0.8300
 7880.967130   8.606e-30   292.72250  0.04490  0.8300
 7881.005471   3.977e-29   155.22700  0.04870  0.8400
 7881.115614   4.225e-29   325.56040  0.04380  0.8300
 7881.164423   5.922e-30   292.52520  0.04490  0.8300
 7881.262439   2.098e-28   180.96990  0.04780  0.8400
 7881.313718   1.095e-25    81.58050  0.05150  0.8400
 7881.327567   2.971e-29   325.34850  0.04380  0.8300
 7881.390966   4.104e-29   127.33860  0.04960  0.8400
 7881.517924   9.817e-30   253.69340  0.04590  0.8300
 7881.675502   2.208e-28   151.12020  0.04870  0.8400
 7881.689641   4.873e-29   284.87380  0.04490  0.8300
 7881.695848   6.569e-30   253.51550  0.04590  0.8300
 7881.724010   3.242e-26   188.85310  0.04770  0.8400
 7881.737753   4.125e-29   102.23590  0.05040  0.8400
 7881.830098   9.309e-26    44.21170  0.05350  0.8400
 7881.863695   2.029e-26   188.71340  0.04770  0.8400
 7881.883232   3.344e-29   284.68020  0.04490  0.8300
 7882.030052   1.101e-29   217.44460  0.04690  0.8500
 7882.045880   4.024e-29    79.91990  0.05130  0.8400
 7882.050817   2.270e-28   123.98030  0.04960  0.8400
 7882.115842   9.827e-32  3144.44860  0.02540  0.7400
 7882.187384   6.003e-26    18.33720  0.05600  0.8400
 7882.188119   7.131e-30   217.28660  0.04690  0.8500
 7882.225858   5.531e-29   246.89180  0.04590  0.8300
 7882.315393   3.787e-29    60.39150  0.05230  0.8400
 7882.388438   2.275e-28    99.55160  0.05040  0.8400
 7882.400723   3.690e-29   246.71690  0.04590  0.8300
 7882.503672   1.213e-29   183.97760  0.04780  0.8400
 7882.546332   3.407e-29    43.65150  0.05330  0.8400
 7882.583391   3.756e-26   128.49200  0.04950  0.8400
 7882.641265   7.565e-30   183.84000  0.04780  0.8400
 7882.677679   2.125e-26   128.39770  0.04950  0.8400
 7882.688418   2.212e-28    77.83480  0.05130  0.8400
 7882.724404   6.174e-29   211.61580  0.04690  0.8500
 7882.738729   2.877e-29    29.70040  0.05430  0.8400
 7882.880088   3.987e-29   211.46010  0.04690  0.8500
 7882.892613   2.187e-29    18.53890  0.05550  0.8400
 7882.938973   1.314e-29   153.29350  0.04870  0.8400
 7882.950801   2.077e-28    58.83070  0.05230  0.8400
 7883.008007   1.172e-29    10.16740  0.05680  0.8400
 7883.055289   7.826e-30   153.17720  0.04870  0.8400
 7883.175628   1.864e-28    42.54020  0.05330  0.8400
 7883.185431   6.776e-29   179.04700  0.04780  0.8400
 7883.287223   4.045e-26    79.60700  0.05150  0.8400
 7883.321358   4.211e-29   178.91100  0.04780  0.8400
 7883.329605   1.958e-26    79.56460  0.05150  0.8400
 7883.336196   1.397e-29   125.39340  0.04960  0.8400
 7883.362931   1.571e-28    28.96380  0.05430  0.8400
 7883.430170   7.873e-30   125.29940  0.04960  0.8400
 7883.512740   1.193e-28    18.10210  0.05550  0.8400
 7883.609121   7.309e-29   149.18650  0.04870  0.8400
 7883.625077   6.383e-29     9.95550  0.05680  0.8400
 7883.695670   1.457e-29   100.27800  0.05040  0.8400
 7883.724542   4.338e-29   149.07110  0.04870  0.8400
 7883.765840   7.670e-30   100.20780  0.05040  0.8400
 7883.817839   1.486e-26    42.22400  0.05350  0.8400
 7883.841691   4.013e-26    42.20010  0.05350  0.8400
 7883.995702   7.744e-29   122.03550  0.04960  0.8400
 7884.017890   1.491e-29    77.94790  0.05130  0.8400
 7884.062173   7.194e-30    77.90360  0.05130  0.8400
 7884.089624   4.347e-29   121.94150  0.04960  0.8400
 7884.136953   7.447e-27    16.38760  0.05600  0.8400
 7884.271701   3.724e-26    16.25290  0.05600  0.8400
 7884.303669   1.497e-29    58.40320  0.05230  0.8400
 7884.318938   6.436e-30    58.38800  0.05230  0.8400
 7884.345487   8.056e-29    97.59450  0.05040  0.8400
 7884.416546   4.221e-29    97.52350  0.05040  0.8400
 7884.535732   5.405e-30    41.66210  0.05330  0.8400
 7884.554504   1.474e-29    41.64330  0.05330  0.8400
 7884.658939   8.224e-29    75.86420  0.05130  0.8400
 7884.705194   3.946e-29    75.81800  0.05130  0.8400
 7884.711818   4.139e-30    27.72730  0.05430  0.8400
 7884.773578   1.426e-29    27.66560  0.05430  0.8400
 7884.845768   2.707e-30    16.58580  0.05550  0.8400
 7884.936822   8.237e-29    56.84470  0.05230  0.8400
 7884.955356   3.520e-29    56.82620  0.05230  0.8400
 7884.969236   1.370e-29    16.46230  0.05550  0.8400
 7885.166659   2.949e-29    40.54920  0.05330  0.8400
 7885.173431   1.358e-29     8.00200  0.05680  0.8400
 7885.180533   8.097e-29    40.53530  0.05330  0.8400
 7885.338420   2.253e-29    26.98840  0.05430  0.8400
 7885.393040   7.832e-29    26.93370  0.05430  0.8400
 7885.469308   1.470e-29    16.14560  0.05550  0.8400
 7885.582118   7.528e-29    16.03270  0.05550  0.8400
 7885.777462   7.482e-29     7.80310  0.05680  0.8400
 7888.056996   6.613e-26     3.96110  0.05760  0.8400
 7888.589195   2.409e-29     4.58620  0.05680  0.8400
 7888.831147   1.653e-29  1814.01050  0.04380  0.8300
 7889.056353   1.312e-28     4.52420  0.05680  0.8400
 7889.933787   1.708e-26     2.08430  0.05760  0.8400
 7890.473847   6.181e-30     2.70160  0.05680  0.8400
 7890.948397   3.336e-29     2.63210  0.05680  0.8400
 7891.264121   2.606e-29    10.16740  0.05550  0.8400
 7891.659395   1.420e-28     9.95550  0.05550  0.8400
 7892.018081   1.957e-28     0.00000  0.05750  0.8700
 7893.175680   1.643e-29     0.00000  0.05680  0.8400
 7893.190570   1.082e-29     8.24090  0.05550  0.8400
 7893.528790   7.704e-26    18.33720  0.05470  0.8400
 7893.581064   8.944e-29     0.00000  0.05680  0.8400
 7893.590730   5.859e-29     8.02410  0.05550  0.8400
 7893.900229   2.816e-29    18.53890  0.05430  0.8400
 7894.224654   1.536e-28    18.10210  0.05430  0.8400
 7895.478359   4.013e-26    16.38760  0.05470  0.8400
 7895.613107   8.254e-29    16.25290  0.05480  1.0100
 7895.853384   1.464e-29    16.58580  0.05430  0.8400
 7896.181222   7.947e-29    16.14560  0.05430  0.8400
 7896.497386   2.988e-29    29.70040  0.05330  0.8400
 7896.752004   1.632e-28    28.96380  0.05330  0.8400
 7898.440270   3.435e-26     2.08430  0.05600  0.8400
 7898.470475   1.774e-29    27.72730  0.05330  0.8400
 7898.727493   9.653e-29    26.98840  0.05330  0.8400
 7898.729962   1.237e-29     2.70160  0.05550  0.8400
 7898.764142   1.233e-29  1896.34070  0.04160  0.8100
 7898.839758   8.442e-26    44.21170  0.05250  0.8400
 7898.982715   6.679e-29     2.63210  0.05550  0.8400
 7899.055454   3.104e-29    43.65150  0.05230  0.8400
 7899.241313   1.698e-28    42.54020  0.05230  0.8400
 7900.827499   5.489e-26    42.22400  0.05250  0.8400
 7900.851351   8.951e-29    42.20010  0.05260  0.8600
 7901.044853   2.012e-29    41.66210  0.05230  0.8400
 7901.232345   1.097e-28    40.54920  0.05230  0.8400
 7901.574290   3.154e-29    60.39150  0.05130  0.8400
 7901.692444   1.730e-28    58.83070  0.05130  0.8400
 7903.577835   2.177e-29    58.38800  0.05130  0.8400
 7903.696999   1.191e-28    56.82620  0.05130  0.8400
 7903.988692   8.507e-26    81.58050  0.05040  0.8400
 7904.053746   3.138e-29    79.91990  0.05040  0.8400
 7904.105253   1.725e-28    77.83480  0.05040  0.8400
 7904.198186   1.393e-29     8.24090  0.05430  0.8400
 7904.302644   7.543e-29     8.02410  0.05430  0.8400
 7905.962198   8.912e-29    79.60700  0.05080  0.8000
 7906.004580   6.163e-26    79.56460  0.05040  0.8400
 7906.070039   2.271e-29    77.90360  0.05040  0.8400
 7906.122029   1.246e-28    75.81800  0.05040  0.8400
 7906.479591   1.687e-28    99.55160  0.04960  0.8400
 7906.493668   3.060e-29   102.23590  0.04960  0.8400
 7908.507700   1.264e-28    97.52350  0.04960  0.8400
 7908.507948   8.613e-30  1989.99040  0.03920  0.8100
 7908.521755   2.297e-29   100.20780  0.04960  0.8400
 7908.815305   1.619e-28   123.98030  0.04870  0.8400
 7908.893894   2.926e-29   127.33860  0.04870  0.8400
 7908.974286   7.865e-26   130.43750  0.04860  0.8400
 7909.570295   8.255e-29    16.14560  0.05330  0.8400
 7909.612041   1.521e-29    16.58580  0.05330  0.8400
 7909.654198   4.173e-26    16.38760  0.05350  0.8400
 7909.781676   1.197e-28     2.08430  0.05480  1.0100
 7910.854112   1.249e-28   121.94150  0.04870  0.8400
 7910.919761   8.194e-29   128.49200  0.04930  0.7400
 7910.933098   2.262e-29   125.29940  0.04870  0.8400
 7911.014049   6.099e-26   128.39770  0.04860  0.8400
 7911.112233   1.525e-28   151.12020  0.04780  0.8400
 7911.254261   2.746e-29   155.22700  0.04780  0.8400
 7913.161272   1.205e-28   149.07110  0.04780  0.8400
 7913.304080   2.175e-29   153.17720  0.04780  0.8400
 7913.370210   1.411e-28   180.96990  0.04690  0.8500
 7913.574597   2.531e-29   185.90010  0.04690  0.8500
 7913.795131   6.741e-26   190.77480  0.04690  0.8300
 7914.793179   8.793e-29    26.98840  0.05230  0.8400
 7914.979597   1.616e-29    27.72730  0.05230  0.8400
 7915.429128   1.138e-28   178.91100  0.04690  0.8500
 7915.589064   1.283e-28   213.52860  0.04590  0.8300
 7915.634651   2.045e-29   183.84000  0.04690  0.8500
 7915.716876   6.992e-29   188.85310  0.04790  0.8500
 7915.854725   2.292e-29   219.35660  0.04590  0.8300
 7915.856562   5.457e-26   188.71340  0.04690  0.8300
 7917.657588   1.053e-28   211.46010  0.04590  0.8300
 7917.768619   1.147e-28   248.79480  0.04490  0.8300
 7917.924721   1.884e-29   217.28660  0.04590  0.8300
 7918.059837   5.650e-30  2094.94410  0.03680  0.8000
 7918.094463   2.040e-29   255.59520  0.04490  0.8300
 7918.449714   5.361e-26   262.58270  0.04520  0.8300
 7919.846531   9.558e-29   246.71690  0.04490  0.8300
 7919.908691   1.009e-28   286.76740  0.04380  0.8300
 7919.973988   9.139e-29    40.54920  0.05130  0.8400
 7920.174169   1.702e-29   253.51550  0.04490  0.8300
 7920.293622   1.785e-29   294.61440  0.04380  0.8300
 7920.303750   1.676e-29    41.66210  0.05130  0.8400
 7920.349969   5.558e-29   260.68240  0.04660  0.6200
 7920.531528   4.494e-26   260.50090  0.04520  0.8300
 7920.670245   4.558e-26    42.22400  0.05150  0.8400
 7921.995819   8.516e-29   284.68020  0.04380  0.8300
 7922.009092   8.737e-29   327.44470  0.04270  0.8300
 7922.382852   1.508e-29   292.52520  0.04380  0.8300
 7922.452010   1.537e-29   336.41290  0.04270  0.8300
 7922.936423   4.013e-26   345.84950  0.04330  0.8300
 7924.069628   7.446e-29   370.82530  0.04160  0.8100
 7924.105295   7.456e-29   325.34850  0.04270  0.8300
 7924.550612   1.313e-29   334.31420  0.04270  0.8300
 7924.569427   1.302e-29   380.98880  0.04160  0.8100
 7924.816504   4.127e-29   343.96940  0.04530  0.8700
 7925.037809   3.435e-26   343.74810  0.04330  0.8300
 7925.113834   9.287e-29    56.82620  0.05040  0.8400
 7925.585701   1.698e-29    58.38800  0.05040  0.8400
 7926.090099   6.247e-29   416.90750  0.04040  0.8100
 7926.174789   6.417e-29   368.72010  0.04160  0.8100
 7926.645668   1.086e-29   428.34050  0.04040  0.8100
 7926.663858   1.295e-28    16.38760  0.05260  0.8600
 7926.677277   1.124e-29   378.88090  0.04160  0.8100
 7927.253539   2.789e-26   440.56180  0.04150  0.8100
 7927.416903   3.483e-30  2211.18460  0.03450  0.8000
 7928.070299   5.162e-29   465.68950  0.03920  0.8100
 7928.204122   5.431e-29   414.79340  0.04040  0.8100
 7928.680524   8.914e-30   478.46610  0.03920  0.8100
 7928.762662   9.452e-30   426.22350  0.04040  0.8100
 7929.114287   2.870e-29   438.70100  0.04390  0.8100
 7929.373957   2.430e-26   438.44130  0.04150  0.8100
 7930.010018   4.201e-29   517.16950  0.03800  0.8000
 7930.193104   4.523e-29   463.56670  0.03920  0.8100
 7930.213182   9.240e-29    75.81800  0.04960  0.8400
 7930.673777   7.205e-30   531.36360  0.03800  0.8000
 7930.806575   7.820e-30   476.34000  0.03920  0.8100
 7930.825954   1.685e-29    77.90360  0.04960  0.8400
 7931.399242   1.820e-26   546.70420  0.03960  0.8000
 7931.510803   4.558e-26    79.56460  0.04950  0.8400
 7931.909039   3.368e-29   571.34550  0.03680  0.8000
 7932.141536   3.708e-29   515.03800  0.03800  0.8000
 7932.625207   5.735e-30   587.03100  0.03680  0.8000
 7932.808812   6.365e-30   529.22860  0.03800  0.8000
 7933.241229   1.872e-29   544.86220  0.04250  1.0600
 7933.538314   1.611e-26   544.56510  0.03960  0.8000
 7933.767140   2.661e-29   628.21540  0.03560  0.8000
 7934.049212   2.992e-29   569.20530  0.03680  0.8000
 7934.534587   4.497e-30   645.46600  0.03560  0.8000
 7934.769163   5.099e-30   584.88700  0.03680  0.8000
 7935.272188   9.011e-29    97.52350  0.04870  0.8400
 7935.371603   1.117e-26   664.25950  0.03760  0.8000
 7935.584092   2.072e-29   687.77710  0.03450  0.8000
 7935.915917   2.378e-29   626.06660  0.03560  0.8000
 7936.024683   1.638e-29   100.20780  0.04870  0.8400
 7936.401683   3.473e-30   706.66640  0.03450  0.8000
 7936.576086   2.021e-30  2338.69260  0.03230  0.7800
 7936.687410   4.021e-30   643.31320  0.03560  0.8000
 7937.195238   1.147e-29   662.43590  0.04090  0.8000
 7937.359661   1.590e-29   750.02830  0.03330  0.7900
 7937.529059   9.983e-27   662.10210  0.03760  0.8000
 7937.741431   1.861e-29   685.61970  0.03450  0.8000
 7938.226258   2.643e-30   770.62970  0.03330  0.7900
 7938.563327   3.123e-30   704.50470  0.03450  0.8000
 7939.093609   1.202e-29   814.96650  0.03230  0.7800
 7939.168590   6.452e-27   793.20870  0.03550  0.7900
 7939.525526   1.435e-29   747.86240  0.03330  0.7900
 7940.008067   1.981e-30   837.35350  0.03230  0.7800
 7940.290842   8.624e-29   121.94150  0.04780  0.8400
 7940.396683   2.388e-30   768.45930  0.03330  0.7900
 7940.785690   8.963e-30   882.58940  0.03130  0.7800
 7940.974174   6.612e-30   791.40320  0.03930  0.7900
 7941.181888   1.562e-29   125.29940  0.04780  0.8400
 7941.267967   1.090e-29   812.79220  0.03230  0.7800
 7941.344231   5.842e-27   791.03310  0.03550  0.7900
 7941.746860   1.464e-30   906.83510  0.03130  0.7800
 7942.179342   4.205e-26   128.39770  0.04770  0.8400
 7942.187238   1.798e-30   835.17430  0.03230  0.7800
 7942.435654   6.588e-30   952.89430  0.03030  0.7800
 7942.788061   3.499e-27   933.53090  0.03340  0.7800
 7942.968514   8.162e-30   880.40660  0.03130  0.7800
 7943.345220   1.336e-28    42.22400  0.05080  0.8000
 7943.442383   1.066e-30   979.07170  0.03030  0.7800
 7943.934748   1.334e-30   904.64720  0.03130  0.7800
 7944.043244   4.775e-30  1025.87850  0.02940  0.7800
 7944.575824   3.586e-30   931.74320  0.03770  0.7800
 7944.626919   6.023e-30   950.70300  0.03030  0.7800
 7944.981737   3.194e-27   931.33730  0.03340  0.7800
 7945.094375   7.652e-31  1054.06060  0.02940  0.7800
 7945.269043   8.104e-29   149.07110  0.04690  0.8500
 7945.534183   1.105e-30  2477.44730  0.03030  0.7800
 7945.608198   3.412e-30  1101.53920  0.02860  0.7700
 7945.638962   9.754e-31   976.87520  0.03030  0.7800
 7946.227767   1.791e-27  1085.20330  0.03140  0.7700
 7946.242929   4.381e-30  1023.67880  0.02940  0.7800
 7946.297466   1.462e-29   153.17720  0.04690  0.8500
 7946.702570   5.413e-31  1131.79870  0.02860  0.7700
 7947.130248   2.405e-30  1179.87360  0.02790  0.7600
 7947.299621   7.026e-31  1051.85540  0.02940  0.7800
 7947.816286   3.141e-30  1099.33110  0.02860  0.7700
 7947.997890   1.833e-30  1083.43320  0.03610  0.7800
 7948.266694   3.775e-31  1212.28310  0.02790  0.7600
 7948.439366   1.637e-27  1082.99170  0.03140  0.7700
 7948.609122   1.671e-30  1260.87860  0.02720  0.7600
 7948.916463   4.987e-31  1129.58480  0.02860  0.7700
 7949.346722   2.221e-30  1177.65710  0.02790  0.7600
 7949.485346   8.635e-28  1248.20130  0.02940  0.7600
 7949.786472   2.596e-31  1295.51040  0.02720  0.7600
 7950.044540   1.146e-30  1344.55110  0.02650  0.7500
 7950.206628   7.483e-29   178.91100  0.04590  0.8300
 7950.489217   3.489e-31  1210.06060  0.02790  0.7600
 7950.833968   1.548e-30  1258.65370  0.02720  0.7600
 7951.237974   8.827e-31  1246.44870  0.03450  0.7600
 7951.261619   1.760e-31  1381.47760  0.02650  0.7500
 7951.371253   1.345e-29   183.84000  0.04590  0.8300
 7951.436218   7.746e-31  1430.88780  0.02590  0.7500
 7951.714782   7.961e-28  1245.97190  0.02940  0.7600
 7952.017609   2.406e-31  1293.27930  0.02720  0.7600
 7952.277747   1.064e-30  1342.31780  0.02650  0.7500
 7952.558328   3.916e-28  1422.49840  0.02760  0.7500
 7952.675533   3.563e-26   188.71340  0.04600  0.8300
 7952.691847   1.176e-31  1470.18100  0.02590  0.7500
 7952.783864   5.166e-31  1519.88560  0.02540  0.7400
 7953.501357   1.635e-31  1379.23780  0.02650  0.7500
 7953.677774   7.213e-31  1428.64630  0.02590  0.7500
 7954.076861   7.751e-32  1561.61730  0.02540  0.7400
 7954.087185   3.398e-31  1611.54100  0.02490  0.7400
 7954.287847   5.692e-31  2627.42580  0.02860  0.7700
 7954.293577   4.010e-31  1420.76310  0.03310  0.7500
 7954.805535   3.627e-28  1420.25120  0.02760  0.7500
 7954.940175   1.096e-31  1467.93270  0.02590  0.7500
 7955.033762   4.822e-31  1517.63570  0.02540  0.7400
 7955.103396   6.793e-29   211.46010  0.04490  0.8300
 7955.345877   2.205e-31  1705.85040  0.02450  0.7300
 7955.416361   5.037e-32  1655.78280  0.02490  0.7400
 7955.444127   1.679e-28  1608.06620  0.02600  0.7400
 7956.333768   7.240e-32  1559.36040  0.02540  0.7400
 7956.345415   3.180e-31  1609.28280  0.02490  0.7400
 7956.403043   1.215e-29   217.28660  0.04490  0.8300
 7956.559634   1.412e-31  1802.81020  0.02410  0.7300
 7957.162095   1.719e-31  1606.34830  0.03170  0.7400
 7957.612433   2.068e-31  1703.58380  0.02450  0.7300
 7957.709055   1.570e-28  1605.80130  0.02600  0.7400
 7957.728142   8.920e-32  1902.41670  0.02380  0.7200
 7958.140042   6.805e-29  1804.87460  0.02450  0.7300
 7958.834510   1.327e-31  1800.53530  0.02410  0.7300
 7958.851083   5.559e-32  2004.66600  0.02340  0.7200
 7959.840811   6.959e-32  1803.17380  0.03050  0.7300
 7959.847174   1.286e-28    79.56460  0.04930  0.7400
 7959.959119   6.064e-29   246.71690  0.04380  0.8300
 7960.011333   8.397e-32  1900.13350  0.02380  0.7200
 7960.422653   6.388e-29  1802.59200  0.02450  0.7300
 7960.643255   2.597e-29  2012.89140  0.02310  0.7200
 7961.142586   5.243e-32  2002.37450  0.02340  0.7200
 7961.392598   1.080e-29   253.51550  0.04380  0.8300
 7962.833595   2.766e-31  2788.60350  0.02720  0.7600
 7962.943521   2.459e-29  2010.59120  0.02310  0.7200
 7962.997808   2.831e-26   260.50090  0.04430  0.8300
 7964.773547   5.327e-29   284.68020  0.04270  0.8300
 7966.339664   9.436e-30   292.52520  0.04270  0.8300
 7969.546414   4.605e-29   325.34850  0.04160  0.8100
 7971.167804   1.269e-31  2960.95390  0.02590  0.7500
 7971.243965   8.113e-30   334.31420  0.04160  0.8100
 7973.144047   2.096e-26   343.74810  0.04240  0.8100
 7974.277443   3.920e-29   368.72010  0.04040  0.8100
 7976.105214   6.864e-30   378.88090  0.04040  0.8100
 7976.172208   1.154e-28   128.39770  0.04790  0.8500
 7978.966344   3.285e-29   414.79340  0.03920  0.8100
 7979.286710   5.496e-32  3144.44860  0.02490  0.7400
 7980.923112   5.717e-30   426.22350  0.03920  0.8100
 7983.111819   1.457e-26   438.44130  0.04060  0.8100
 7983.612817   2.711e-29   463.56670  0.03800  0.8000
 7985.697351   4.688e-30   476.34000  0.03800  0.8000
 7988.216556   2.205e-29   515.03800  0.03680  0.8000
 7990.427613   3.786e-30   529.22860  0.03680  0.8000
 7992.319016   9.671e-29   188.71340  0.04660  0.6200
 7992.777243   1.766e-29   569.20530  0.03560  0.8000
 7992.898487   9.502e-27   544.56510  0.03860  0.8000
 7995.113572   3.011e-30   584.88700  0.03560  0.8000
 7997.294557   1.394e-29   626.06660  0.03450  0.8000
 7999.754895   2.359e-30   643.31320  0.03450  0.8000
 8001.768166   1.085e-29   685.61970  0.03330  0.7900
 8002.501246   5.810e-27   662.10210  0.03650  0.7900
 8004.351242   1.821e-30   704.50470  0.03330  0.7900
 8006.197734   8.320e-30   747.86240  0.03230  0.7800
 8008.285047   7.579e-29   260.50090  0.04530  0.8700
 8008.902265   1.385e-30   768.45930  0.03230  0.7800
 8010.582916   6.289e-30   812.79220  0.03130  0.7800
 8011.917151   3.338e-27   791.03310  0.03450  0.7800
 8013.407611   1.038e-30   835.17430  0.03130  0.7800
 8014.923363   4.687e-30   880.40660  0.03030  0.7800
 8017.866920   7.664e-31   904.64720  0.03030  0.7800
 8019.218718   3.444e-30   950.70300  0.02940  0.7800
 8021.143128   1.820e-27   931.33730  0.03240  0.7800
 8022.279825   5.578e-31   976.87520  0.02940  0.7800
 8023.468620   2.495e-30  1023.67880  0.02860  0.7700
 8024.067199   5.567e-29   343.74810  0.04390  0.8100
 8026.645953   4.002e-31  1051.85540  0.02860  0.7700
 8027.672698   1.782e-30  1099.33110  0.02790  0.7600
 8030.175979   9.277e-28  1082.99170  0.03050  0.7700
 8030.964927   2.830e-31  1129.58480  0.02790  0.7600
 8031.830579   1.256e-30  1177.65710  0.02720  0.7600
 8035.236361   1.973e-31  1210.06060  0.02720  0.7600
 8035.941883   8.726e-31  1258.65370  0.02650  0.7500
 8039.012386   4.462e-28  1245.97190  0.02850  0.7600
 8039.459865   1.356e-31  1293.27930  0.02650  0.7500
 8039.662063   3.837e-29   438.44130  0.04250  1.0600
 8040.006222   5.980e-31  1342.31780  0.02590  0.7500
 8043.635042   9.193e-32  1379.23780  0.02590  0.7500
 8044.023204   4.042e-31  1428.64630  0.02540  0.7400
 8047.648910   2.029e-28  1420.25120  0.02680  0.7500
 8047.761491   6.143e-32  1467.93270  0.02540  0.7400
 8047.992432   2.695e-31  1517.63570  0.02490  0.7400
 8051.913501   1.773e-31  1609.28280  0.02450  0.7300
 8055.066015   2.485e-29   544.56510  0.04090  0.8000
 8055.786002   1.150e-31  1703.58380  0.02410  0.7300
 8056.081995   8.667e-29  1605.80130  0.02520  0.7400
 8059.609518   7.365e-32  1800.53530  0.02380  0.7200
 8064.307967   3.499e-29  1802.59200  0.02380  0.7300
 8070.275271   1.514e-29   662.10210  0.03930  0.7900
 8085.285901   8.684e-30   791.03310  0.03770  0.7800
 8100.093848   4.692e-30   931.33730  0.03610  0.7800
 8114.694929   2.390e-30  1082.99170  0.03450  0.7600
 8129.084839   1.148e-30  1245.97190  0.03310  0.7500
 8143.259155   5.204e-31  1420.25120  0.03170  0.7400
 8157.213334   2.227e-31  1605.80130  0.03050  0.7300
 8170.942711   9.000e-32  1802.59200  0.02940  0.7200
 9128.947881   9.454e-32  1803.17380  0.02590  0.7500
 9145.088830   2.308e-31  1606.34830  0.02720  0.7600
 9160.950472   5.308e-31  1420.76320  0.02860  0.7700
 9176.532745   1.150e-30  1246.44870  0.03030  0.7800
 9191.835456   2.343e-30  1083.43320  0.03230  0.7800
 9206.858291   4.484e-30   931.74320  0.03450  0.8000
 9210.738543   7.503e-32  2012.89140  0.02450  0.7300
 9212.422183   8.143e-32  2011.20780  0.02450  0.7300
 9221.600819   8.049e-30   791.40320  0.03680  0.8000
 9221.689891   1.944e-31  1804.87460  0.02540  0.7400
 9223.390661   2.118e-31  1803.17380  0.02540  0.7400
 9232.344985   4.750e-31  1608.06620  0.02650  0.7500
 9234.062953   5.202e-31  1606.34830  0.02650  0.7500
 9236.062498   1.353e-29   662.43590  0.03920  0.8100
 9242.704879   1.094e-30  1422.49840  0.02790  0.7600
 9244.440129   1.205e-30  1420.76320  0.02790  0.7600
 9250.242688   2.122e-29   544.86220  0.04160  0.8100
 9252.770493   2.374e-30  1248.20130  0.02940  0.7800
 9254.523120   2.630e-30  1246.44870  0.02940  0.7800
 9262.542610   4.846e-30  1085.20330  0.03130  0.7800
 9264.140664   3.097e-29   438.70100  0.04380  0.8300
 9264.312733   5.407e-30  1083.43320  0.03130  0.7800
 9272.021882   9.299e-30   933.53090  0.03330  0.7900
 9273.809645   1.046e-29   931.74320  0.03330  0.7900
 9277.755642   4.180e-29   343.96940  0.04590  0.8300
 9281.208834   1.675e-29   793.20870  0.03560  0.8000
 9283.014418   1.902e-29   791.40320  0.03560  0.8000
 9290.103866   2.827e-29   664.25950  0.03800  0.8000
 9291.086830   5.173e-29   260.68240  0.04780  0.8400
 9291.927501   3.248e-29   662.43590  0.03800  0.8000
 9298.707256   4.459e-29   546.70420  0.04040  0.8100
 9300.549243   5.195e-29   544.86220  0.04040  0.8100
 9304.133526   5.786e-29   188.85310  0.04960  0.8400
 9307.019159   6.554e-29   440.56180  0.04270  0.8300
 9307.528433   6.053e-32  2232.08280  0.02340  0.7200
 9308.879907   7.767e-29   438.70100  0.04270  0.8300
 9313.352478   1.668e-31  2012.89140  0.02410  0.7300
 9315.039617   8.934e-29   345.84950  0.04490  0.8300
 9316.895366   5.690e-29   128.49200  0.05130  0.8400
 9316.919698   1.082e-28   343.96940  0.04490  0.8300
 9318.860759   4.343e-31  1804.87460  0.02490  0.7400
 9320.561529   1.183e-31  1803.17380  0.02490  0.7400
 9321.143370   1.018e-31  1802.59200  0.02490  0.7400
 9322.768554   1.122e-28   262.58270  0.04690  0.8500
 9324.055476   1.067e-30  1608.06620  0.02590  0.7500
 9324.668809   1.398e-28   260.68240  0.04690  0.8500
 9325.773444   2.920e-31  1606.34830  0.02590  0.7500
 9326.320403   2.491e-31  1605.80130  0.02590  0.7500
 9328.938683   2.474e-30  1422.49840  0.02720  0.7600
 9329.373016   4.620e-29    79.60700  0.05330  0.8400
 9330.205779   1.282e-28   190.77480  0.04870  0.8400
 9330.673932   6.805e-31  1420.76320  0.02720  0.7600
 9331.185890   5.746e-31  1420.25120  0.02720  0.7600
 9332.127525   1.662e-28   188.85310  0.04870  0.8400
 9333.512298   5.406e-30  1248.20130  0.02860  0.7700
 9335.264926   1.496e-30  1246.44870  0.02860  0.7700
 9335.741734   1.248e-30  1245.97190  0.02860  0.7700
 9337.350992   1.308e-28   130.43750  0.05040  0.8400
 9337.778101   1.113e-29  1085.20330  0.03030  0.7800
 9339.296467   1.796e-28   128.49200  0.05040  0.8400
 9339.548224   3.102e-30  1083.43320  0.03030  0.7800
 9339.989700   2.554e-30  1082.99170  0.03030  0.7800
 9341.570724   2.530e-29    42.20010  0.05550  0.8400
 9341.737738   2.157e-29   933.53090  0.03230  0.7800
 9343.525501   6.060e-30   931.74320  0.03230  0.7800
 9343.931414   4.912e-30   931.33730  0.03230  0.7800
 9344.203777   1.144e-28    81.58050  0.05230  0.8400
 9345.392728   3.932e-29   793.20870  0.03450  0.8000
 9346.177283   1.719e-28    79.60700  0.05230  0.8400
 9347.198311   1.115e-29   791.40320  0.03450  0.8000
 9347.568368   8.874e-30   791.03310  0.03450  0.8000
 9348.744460   6.730e-29   664.25950  0.03680  0.8000
 9350.568095   1.930e-29   662.43590  0.03680  0.8000
 9350.763614   7.685e-29    44.21170  0.05430  0.8400
 9350.901916   1.503e-29   662.10210  0.03680  0.8000
 9351.794204   1.080e-28   546.70420  0.03920  0.8100
 9352.775207   1.368e-28    42.20010  0.05430  0.8400
 9353.636191   3.139e-29   544.86220  0.03920  0.8100
 9353.933276   2.383e-29   544.56510  0.03920  0.8100
 9354.543104   1.622e-28   440.56180  0.04160  0.8100
 9356.403852   4.794e-29   438.70100  0.04160  0.8100
 9356.663522   3.524e-29   438.44140  0.04160  0.8100
 9356.992190   2.274e-28   345.84950  0.04380  0.8300
 9357.029869   2.423e-29    18.33720  0.05680  0.8400
 9358.872271   6.862e-29   343.96940  0.04380  0.8300
 9359.093576   4.845e-29   343.74810  0.04380  0.8300
 9359.114186   6.612e-29    16.25290  0.05680  0.8400
 9359.142371   2.961e-28   262.58270  0.04590  0.8300
 9360.994445   3.562e-28   190.77480  0.04780  0.8400
 9361.042626   9.185e-29   260.68240  0.04590  0.8300
 9361.224185   6.156e-29   260.50090  0.04590  0.8300
 9362.549095   3.917e-28   130.43750  0.04960  0.8400
 9362.916191   1.147e-28   188.85310  0.04780  0.8400
 9363.055876   7.165e-29   188.71340  0.04780  0.8400
 9363.806891   3.868e-28    81.58050  0.05130  0.8400
 9364.494570   1.331e-28   128.49200  0.04960  0.8400
 9364.588858   7.523e-29   128.39770  0.04960  0.8400
 9364.768296   3.293e-28    44.21170  0.05330  0.8400
 9365.433662   2.122e-28    18.33720  0.05550  0.8400
 9365.780397   1.431e-28    79.60700  0.05130  0.8400
 9365.822778   6.925e-29    79.56460  0.05130  0.8400
 9366.756038   5.233e-29    42.22400  0.05330  0.8400
 9366.779890   1.421e-28    42.20010  0.05330  0.8400
 9367.383230   2.633e-29    16.38760  0.05550  0.8400
 9367.517979   1.324e-28    16.25290  0.05550  0.8400
 9371.405964   2.342e-28     3.96110  0.05680  0.8400
 9373.282755   6.037e-29     2.08430  0.05680  0.8400
 9376.638146   2.731e-28    18.33720  0.05430  0.8400
 9378.587714   1.423e-28    16.38760  0.05430  0.8400
 9381.572564   2.999e-28    44.21170  0.05230  0.8400
 9381.686548   1.208e-28     2.08430  0.05550  0.8400
 9383.560305   1.947e-28    42.22400  0.05230  0.8400
 9386.207992   3.016e-28    81.58050  0.05040  0.8400
 9388.223879   2.185e-28    79.56460  0.05040  0.8400
 9390.543094   2.792e-28   130.43750  0.04870  0.8400
 9392.582857   2.161e-28   128.39770  0.04870  0.8400
 9392.592397   1.478e-28    16.38760  0.05330  0.8400
 9394.576425   2.393e-28   190.77480  0.04690  0.8500
 9396.637856   1.936e-28   188.71340  0.04690  0.8500
 9398.306427   1.909e-28   262.58270  0.04490  0.8300
 9400.388241   1.594e-28   260.50090  0.04490  0.8300
 9401.731433   1.421e-28   345.84950  0.04270  0.8300
 9403.163419   1.621e-28    42.22400  0.05130  0.8400
 9403.832819   1.215e-28   343.74810  0.04270  0.8300
 9404.849659   9.903e-29   440.56180  0.04040  0.8100
 9406.970076   8.625e-29   438.44140  0.04040  0.8100
 9407.659206   6.471e-29   546.70420  0.03800  0.8000
 9409.798278   5.720e-29   544.56510  0.03800  0.8000
 9410.158059   3.970e-29   664.25950  0.03560  0.8000
 9412.315515   3.552e-29   662.10210  0.03560  0.8000
 9412.344082   2.290e-29   793.20870  0.03330  0.7900
 9413.421982   1.620e-28    79.56460  0.04960  0.8400
 9414.215015   1.243e-29   933.53090  0.03130  0.7800
 9414.519722   2.070e-29   791.03310  0.03330  0.7900
 9415.768477   6.358e-30  1085.20330  0.02940  0.7800
 9416.408691   1.134e-29   931.33730  0.03130  0.7800
 9417.001955   3.064e-30  1248.20130  0.02790  0.7600
 9417.912807   1.393e-30  1422.49840  0.02650  0.7500
 9417.980076   5.840e-30  1082.99170  0.02940  0.7800
 9418.498256   5.973e-31  1608.06620  0.02540  0.7400
 9418.681144   9.249e-32  2012.89140  0.02380  0.7200
 9418.755387   2.419e-31  1804.87460  0.02450  0.7300
 9419.231390   2.833e-30  1245.97190  0.02790  0.7600
 9420.160013   1.295e-30  1420.25120  0.02650  0.7500
 9420.763184   5.581e-31  1605.80130  0.02540  0.7400
 9420.981411   8.715e-32  2010.59120  0.02380  0.7200
 9421.037998   2.270e-31  1802.59200  0.02450  0.7300
 9423.371523   1.491e-28   128.39770  0.04780  0.8400
 9433.011673   1.272e-28   188.71340  0.04590  0.8300
 9442.340814   1.011e-28   260.50090  0.04380  0.8300
 9451.356764   7.500e-29   343.74810  0.04160  0.8100
 9460.057024   5.212e-29   438.44140  0.03920  0.8100
 9468.438872   3.399e-29   544.56510  0.03680  0.8000
 9476.499408   2.082e-29   662.10210  0.03450  0.8000
 9484.235578   1.199e-29   791.03310  0.03230  0.7800
 9491.644183   6.503e-30   931.33730  0.03030  0.7800
 9498.721881   3.322e-30  1082.99170  0.02860  0.7700
 9505.465194   1.600e-30  1245.97190  0.02720  0.7600
 9511.870504   7.267e-31  1420.25120  0.02590  0.7500
 9517.934051   3.115e-31  1605.80130  0.02490  0.7400
 9523.651934   1.261e-31  1802.59200  0.02410  0.7300
11483.726930   2.982e-29  2340.87640  0.03900  0.6300
11485.536630   2.844e-29  2339.06670  0.03900  0.6300
11492.034530   5.073e-29  2213.35010  0.04000  0.6300
11493.862230   4.814e-29  2211.52240  0.04000  0.6300
11500.094150   8.104e-29  2097.09130  0.04100  0.6400
11501.940150   7.642e-29  2095.24530  0.04100  0.6400
11507.909880   1.213e-28  1992.11890  0.04300  0.6500
11509.774580   1.135e-28  1990.25420  0.04300  0.6500
11515.481620   1.698e-28  1898.45020  0.04400  0.6600
11517.365620   1.574e-28  1896.56620  0.04400  0.6600
11522.810000   2.214e-28  1816.10050  0.04600  0.7000
11524.714200   2.026e-28  1814.19630  0.04600  0.7000
11529.895560   2.677e-28  1745.08320  0.04800  0.7200
11531.821160   2.408e-28  1743.15760  0.04800  0.7200
11536.738420   2.978e-28  1685.41000  0.05000  0.7400
11538.687620   2.614e-28  1683.46080  0.05000  0.7400
11543.338820   3.010e-28  1637.09050  0.05200  0.7300
11545.315620   2.543e-28  1635.11370  0.05200  0.7300
11549.696300   2.699e-28  1600.13290  0.05400  0.7400
11551.710800   2.133e-28  1598.11840  0.05400  0.7400
11555.810860   2.035e-28  1574.54290  0.05600  0.7000
11557.896460   1.388e-28  1572.45730  0.05600  0.7000
11561.681750   1.089e-28  1560.32490  0.05900  0.7200
11570.028860   5.439e-29  1560.32490  0.05600  0.7000
11571.913960   1.261e-28  1558.43980  0.05600  0.7000
11575.286300   1.521e-28  1574.54290  0.05400  0.7400
11577.242700   2.201e-28  1572.58650  0.05400  0.7400
11580.296420   2.237e-28  1600.13290  0.05200  0.7300
11582.290520   2.846e-28  1598.13880  0.05200  0.7300
11585.057920   2.615e-28  1637.09050  0.05000  0.7400
11587.079820   3.130e-28  1635.06860  0.05000  0.7400
11589.568760   2.656e-28  1685.41000  0.04800  0.7200
11591.614460   3.069e-28  1683.36430  0.04800  0.7200
11593.827300   2.427e-28  1745.08320  0.04600  0.7000
11595.894500   2.741e-28  1743.01600  0.04600  0.7000
11597.831320   2.030e-28  1816.10050  0.04400  0.6600
11599.918920   2.255e-28  1814.01290  0.04400  0.6600
11601.578580   1.568e-28  1898.45020  0.04300  0.6500
11603.685680   1.721e-28  1896.34310  0.04300  0.6500
11605.066550   1.127e-28  1992.11890  0.04100  0.6400
11607.192650   1.225e-28  1989.99280  0.04100  0.6400
11608.293330   7.556e-29  2097.09130  0.04000  0.6300
11610.438130   8.154e-29  2094.94650  0.04000  0.6300
11611.253230   4.743e-29  2213.35010  0.03900  0.6300
11613.416430   5.088e-29  2211.18690  0.03900  0.6300
11613.945950   2.794e-29  2340.87640  0.03800  0.6300
11616.127350   2.982e-29  2338.69500  0.03800  0.6300
12847.187193   4.866e-29  2790.84170  0.03320  0.6300
12848.943885   4.696e-29  2789.08500  0.03320  0.6300
12849.566270   2.900e-31  1246.44930  0.03320  0.6300
12858.256218   9.952e-29  2629.64580  0.03540  0.6300
12860.030407   9.574e-29  2627.87160  0.03540  0.6300
12868.927763   1.917e-28  2479.64920  0.03760  0.6300
12870.719592   1.838e-28  2477.85740  0.03760  0.6300
12871.388080   6.000e-31  1083.43350  0.03540  0.6300
12879.203619   3.477e-28  2340.87640  0.03980  0.6300
12881.013264   3.319e-28  2339.06670  0.03980  0.6300
12889.085363   5.929e-28  2213.35010  0.04170  0.6300
12890.913050   5.629e-28  2211.52240  0.04170  0.6400
12892.859360   1.150e-30   931.74330  0.03760  0.6300
12898.574360   9.492e-28  2097.09130  0.04340  0.6400
12899.260968   4.211e-29  2956.36930  0.02330  0.6300
12900.420384   8.956e-28  2095.24530  0.04340  0.6500
12900.876614   4.119e-29  2954.75370  0.02330  0.6300
12907.671759   1.424e-27  1992.11890  0.04470  0.6500
12909.536518   1.333e-27  1990.25420  0.04470  0.6500
12913.221492   1.373e-28  2703.86840  0.02390  0.6300
12913.979820   2.110e-30   791.40320  0.03980  0.6300
12914.854071   1.341e-28  2702.23580  0.02390  0.6300
12916.378499   1.997e-27  1898.45020  0.04580  0.6600
12918.262550   1.852e-27  1896.56620  0.04580  0.6700
12924.695302   2.609e-27  1816.10050  0.04680  0.7000
12926.599465   2.389e-27  1814.19630  0.04680  0.7200
12926.783009   4.233e-28  2462.43080  0.02460  0.6300
12928.432561   4.130e-28  2460.78120  0.02460  0.6300
12932.622680   3.160e-27  1745.08320  0.04780  0.7200
12934.548237   2.844e-27  1743.15760  0.04780  0.7300
12934.748950   3.620e-30   662.43590  0.04170  0.6400
12939.949105   1.234e-27  2232.09570  0.02550  0.6300
12940.160930   3.522e-27  1685.41000  0.04910  0.7400
12941.615675   1.202e-27  2230.42920  0.02550  0.6300
12942.110059   3.093e-27  1683.46080  0.04910  0.7400
12947.310136   3.565e-27  1637.09050  0.05070  0.7300
12949.287021   3.014e-27  1635.11370  0.05070  0.7300
12952.723123   3.397e-27  2012.90060  0.02660  0.6300
12954.070167   3.202e-27  1600.13290  0.05300  0.7400
12954.406761   3.304e-27  2011.21700  0.02660  0.6300
12955.166060   5.860e-30   544.86220  0.04340  0.6500
12956.084590   2.532e-27  1598.11840  0.05300  0.7200
12960.440683   2.418e-27  1574.54290  0.05630  0.7000
12962.526313   1.650e-27  1572.45730  0.05630  0.7100
12965.108162   8.838e-27  1804.88100  0.02780  0.6300
12966.421806   1.296e-27  1560.32490  0.06150  0.7200
12966.808930   8.579e-27  1803.18020  0.02780  0.6300
12970.822007   4.404e-30  1752.70510  0.02780  0.6300
12972.530801   4.278e-30  1750.99630  0.02780  0.6300
12974.658663   6.486e-28  1560.32490  0.05630  0.7100
12975.230270   8.830e-30   438.70100  0.04470  0.6500
12975.867106   2.666e-29  1705.80000  0.02780  0.6300
12976.543778   1.505e-27  1558.43980  0.05630  0.7100
12976.687356   6.854e-30  1655.81060  0.02860  0.6300
12977.107088   2.170e-26  1608.07050  0.02940  0.6300
12977.582955   2.591e-29  1704.08410  0.02780  0.6300
12978.404475   6.651e-30  1654.09350  0.02860  0.6300
12978.825055   2.102e-26  1606.35260  0.02940  0.6300
12979.660093   1.817e-27  1574.54290  0.05300  0.7200
12981.575607   4.098e-29  1611.49880  0.02860  0.6300
12981.616474   2.630e-27  1572.58650  0.05300  0.7200
12982.459761   1.052e-29  1561.64200  0.02940  0.6300
12983.299546   3.979e-29  1609.77490  0.02860  0.6300
12984.185223   1.020e-29  1559.91650  0.02940  0.6300
12984.267824   2.674e-27  1600.13290  0.05070  0.7300
12986.261834   3.404e-27  1598.13880  0.05070  0.7300
12987.193454   6.211e-29  1519.85050  0.02940  0.6300
12988.139499   1.591e-29  1470.20280  0.03030  0.6300
12988.480340   3.130e-27  1637.09050  0.04910  0.7400
12988.722531   5.029e-26  1422.50120  0.03120  0.6300
12988.925501   6.024e-29  1518.11850  0.02940  0.6300
12989.873323   1.541e-29  1468.46900  0.03030  0.6300
12990.457779   4.860e-26  1420.76600  0.03120  0.6300
12990.502232   3.749e-27  1635.06860  0.04910  0.7400
12992.295912   3.182e-27  1685.41000  0.04780  0.7300
12992.720944   9.286e-29  1430.85890  0.03030  0.6300
12993.726835   2.374e-29  1381.49670  0.03120  0.6300
12994.341536   3.680e-27  1683.36430  0.04780  0.7300
12994.461116   8.997e-29  1429.11870  0.03030  0.6300
12994.940550   1.250e-29   343.96940  0.04580  0.6700
12995.469042   2.296e-29  1379.75450  0.03120  0.6300
12995.712598   2.911e-27  1745.08320  0.04680  0.7200
12997.779808   3.289e-27  1743.01600  0.04680  0.7200
12998.158360   1.369e-28  1344.52730  0.03120  0.6300
12998.728241   2.437e-27  1816.10050  0.04580  0.6700
12999.222023   3.491e-29  1295.52730  0.03220  0.6300
12999.906677   1.325e-28  1342.77890  0.03120  0.6300
12999.956891   1.099e-25  1248.20310  0.03320  0.6300
13000.815789   2.708e-27  1814.01290  0.04580  0.6700
13000.972635   3.371e-29  1293.77660  0.03220  0.6300
13001.340473   1.884e-27  1898.45020  0.04470  0.6500
13001.709517   1.059e-25  1246.45050  0.03320  0.6300
13002.186330   1.440e-30  1245.97250  0.03120  0.6300
13003.447572   2.069e-27  1896.34310  0.04470  0.6500
13003.505971   1.991e-28  1260.85920  0.03220  0.6300
13003.546710   1.355e-27  1992.11890  0.04340  0.6500
13004.625304   5.060e-29  1212.29770  0.03320  0.6300
13005.262455   1.924e-28  1259.10270  0.03220  0.6300
13005.344156   9.092e-28  2097.09130  0.04170  0.6400
13005.672837   1.474e-27  1989.99280  0.04340  0.6500
13006.384347   4.880e-29  1210.53870  0.03320  0.6300
13006.729803   5.711e-28  2213.35010  0.03980  0.6300
13007.488946   9.817e-28  2094.94650  0.04170  0.6400
13007.700427   3.366e-28  2340.87640  0.03760  0.6300
13008.086740   4.763e-29  2790.84170  0.03120  0.6300
13008.252593   1.864e-28  2479.64920  0.03540  0.6300
13008.382652   9.708e-29  2629.64580  0.03320  0.6300
13008.764033   2.856e-28  1179.85790  0.03320  0.6300
13008.892995   6.130e-28  2211.18690  0.03980  0.6300
13009.881829   3.594e-28  2338.69500  0.03760  0.6300
13009.936909   7.230e-29  1131.81150  0.03410  0.6300
13010.322043   5.031e-29  2788.60640  0.03120  0.6300
13010.452061   1.982e-28  2477.44970  0.03540  0.6300
13010.528707   2.756e-28  1178.09330  0.03320  0.6300
13010.600078   1.029e-28  2627.42840  0.03320  0.6300
13010.812342   2.263e-25  1085.20440  0.03550  0.6300
13011.704410   6.962e-29  1130.04400  0.03410  0.6300
13012.582464   2.174e-25  1083.43430  0.03550  0.6300
13013.023940   2.970e-30  1082.99210  0.03320  0.6300
13013.932787   4.036e-28  1101.52670  0.03410  0.6300
13014.295770   1.630e-29   260.68250  0.04680  0.7200
13015.157057   1.018e-28  1054.07160  0.03550  0.6300
13015.705676   3.890e-28  1099.75380  0.03410  0.6300
13016.933046   9.788e-29  1052.29560  0.03550  0.6300
13019.012462   5.627e-28  1025.86860  0.03550  0.6300
13020.285953   1.413e-28   979.08120  0.03650  0.6300
13020.793595   5.414e-28  1024.08740  0.03550  0.6300
13021.290834   4.388e-25   933.53150  0.03750  0.6300
13022.070465   1.356e-28   977.29670  0.03650  0.6300
13023.078597   4.200e-25   931.74380  0.03750  0.6300
13023.484510   5.780e-30   931.33740  0.03540  0.6300
13024.003273   7.733e-28   952.88650  0.03650  0.6300
13025.323794   1.932e-28   906.84320  0.03750  0.6300
13025.792682   7.428e-28   951.09710  0.03650  0.6300
13027.116866   1.851e-28   905.05010  0.03750  0.6300
13028.905423   1.047e-27   882.58340  0.03750  0.6300
13030.270762   2.603e-28   837.36040  0.03890  0.6300
13030.703143   1.004e-27   880.78570  0.03750  0.6300
13031.394096   8.005e-25   793.20900  0.03990  0.6300
13032.072436   2.488e-28   835.55870  0.03890  0.6300
13033.199679   7.629e-25   791.40340  0.03990  0.6300
13033.294790   1.970e-29   188.85310  0.04780  0.7300
13033.569740   1.060e-29   791.03320  0.03760  0.6300
13033.719101   1.398e-27   814.96200  0.03890  0.6300
13035.127030   3.454e-28   770.63550  0.03990  0.6300
13035.525171   1.338e-27   813.15590  0.03890  0.6300
13036.937353   3.295e-28   768.82520  0.03990  0.6300
13038.444484   1.840e-27   750.02490  0.03990  0.6300
13039.892757   4.515e-28   706.67120  0.04090  0.6300
13040.258949   1.756e-27   748.21040  0.03990  0.6300
13041.123637   1.372e-24   664.25960  0.04160  0.6300
13041.711783   4.297e-28   704.85220  0.04090  0.6300
13042.947271   1.301e-24   662.43600  0.04160  0.6400
13043.081737   2.385e-27   687.77470  0.04090  0.6300
13043.281090   1.820e-29   662.10210  0.03980  0.6300
13044.568092   5.812e-28   645.47000  0.04160  0.6300
13044.904646   2.271e-27   685.95180  0.04090  0.6300
13046.395881   5.517e-28   643.64220  0.04160  0.6400
13047.631011   3.046e-27   628.21370  0.04160  0.6300
13049.153171   7.367e-28   587.03430  0.04260  0.6400
13049.462421   2.894e-27   626.38230  0.04160  0.6400
13050.480752   2.207e-24   546.70420  0.04330  0.6400
13050.989794   6.972e-28   585.19770  0.04260  0.6400
13051.936720   2.190e-29   128.49210  0.04910  0.7400
13052.092445   3.832e-27   571.34440  0.04260  0.6400
13052.322739   2.079e-24   544.86220  0.04330  0.6500
13052.619820   2.940e-29   544.56510  0.04170  0.6400
13053.648120   9.193e-28   531.36630  0.04330  0.6400
13053.932422   3.630e-27   569.50440  0.04260  0.6400
13055.493658   8.671e-28   529.52080  0.04330  0.6500
13056.466167   4.746e-27   517.16880  0.04330  0.6400
13058.053050   1.129e-27   478.46830  0.04390  0.6500
13058.314787   4.482e-27   515.32020  0.04330  0.6500
13059.466520   3.324e-24   440.56170  0.04460  0.6500
13059.907598   1.061e-27   476.61370  0.04390  0.6500
13060.752291   5.789e-27   465.68920  0.04390  0.6500
13061.327268   3.108e-24   438.70100  0.04460  0.6500
13061.586940   4.440e-29   438.44140  0.04340  0.6500
13062.368065   1.364e-27   428.34220  0.04460  0.6500
13062.609642   5.447e-27   463.83180  0.04390  0.6500
13064.231733   1.277e-27   426.47860  0.04460  0.6500
13064.950922   6.949e-27   416.90740  0.04460  0.6500
13066.593254   1.621e-27   380.99020  0.04530  0.6500
13066.817107   6.512e-27   415.04120  0.04460  0.6500
13068.081811   4.679e-24   345.84940  0.04600  0.6600
13068.466175   1.511e-27   379.11730  0.04530  0.6600
13069.062149   8.206e-27   370.82540  0.04530  0.6500
13069.961892   4.332e-24   343.96940  0.04600  0.6700
13070.183200   6.270e-29   343.74810  0.04470  0.6500
13070.221590   2.180e-29    79.60700  0.05070  0.7300
13070.728695   1.894e-27   336.41400  0.04600  0.6600
13070.937292   7.658e-27   368.95020  0.04530  0.6600
13072.611027   1.756e-27   334.53160  0.04600  0.6700
13073.086052   9.532e-27   327.44490  0.04600  0.6600
13074.774454   2.174e-27   294.61530  0.04630  0.6700
13074.970302   8.851e-27   325.56070  0.04600  0.6700
13076.327282   6.131e-24   262.58260  0.04700  0.7000
13076.666392   2.005e-27   292.72340  0.04630  0.7000
13077.022698   1.089e-26   286.76770  0.04630  0.6700
13078.227537   5.605e-24   260.68240  0.04700  0.7200
13078.409100   8.240e-29   260.50090  0.04580  0.6700
13078.730587   2.452e-27   255.59580  0.04700  0.7000
13078.916235   1.005e-26   284.87420  0.04630  0.7000
13080.632369   2.246e-27   253.69410  0.04700  0.7200
13080.872144   1.221e-26   248.79520  0.04700  0.7000
13082.597136   2.715e-27   219.35710  0.04730  0.7200
13082.775192   1.120e-26   246.89220  0.04700  0.7200
13084.203384   7.445e-24   190.77480  0.04800  0.7200
13084.509064   2.467e-27   217.44520  0.04730  0.7200
13084.634433   1.346e-26   213.52900  0.04730  0.7200
13086.125129   6.690e-24   188.85300  0.04800  0.7300
13086.264810   1.004e-28   188.71340  0.04680  0.7200
13086.374132   2.947e-27   185.90050  0.04800  0.7200
13086.547273   1.225e-26   211.61620  0.04730  0.7200
13088.152930   1.870e-29    42.20010  0.05300  0.7200
13088.296594   2.654e-27   183.97810  0.04800  0.7300
13088.309598   1.455e-26   180.97040  0.04800  0.7200
13090.061596   3.135e-27   155.22740  0.04830  0.7300
13090.232590   1.312e-26   179.04740  0.04800  0.7300
13091.710358   8.312e-24   130.43750  0.04900  0.7400
13091.897660   1.541e-26   151.12060  0.04830  0.7300
13091.995098   2.792e-27   153.29390  0.04830  0.7400
13093.655833   7.287e-24   128.49200  0.04900  0.7400
13093.659535   3.262e-27   127.33890  0.04900  0.7400
13093.750120   1.123e-28   128.39780  0.04780  0.7300
13093.831279   1.375e-26   149.18700  0.04830  0.7400
13095.398629   1.598e-26   123.98080  0.04900  0.7400
13095.604765   2.867e-27   125.39370  0.04900  0.7400
13097.167946   3.316e-27   102.23620  0.04970  0.7400
13097.343514   1.408e-26   122.03590  0.04900  0.7400
13098.812502   1.619e-26    99.55200  0.04970  0.7400
13098.848243   8.426e-24    81.58050  0.05070  0.7300
13099.125864   2.866e-27   100.27830  0.04970  0.7300
13100.586813   3.284e-27    79.92020  0.05070  0.7300
13100.769551   1.403e-26    97.59500  0.04970  0.7300
13100.821748   7.110e-24    79.60690  0.05070  0.7300
13100.864130   1.140e-28    79.56460  0.04910  0.7400
13102.139268   1.599e-26    77.83520  0.05070  0.7300
13102.558824   2.779e-27    77.94810  0.05070  0.7300
13103.916109   3.158e-27    60.39170  0.05170  0.7300
13104.109789   1.357e-26    75.86470  0.05070  0.7300
13105.378901   1.533e-26    58.83120  0.05170  0.7300
13105.616870   7.573e-24    44.21170  0.05310  0.7400
13105.752880   1.140e-29    16.25290  0.05630  0.7100
13105.904385   2.600e-27    58.40350  0.05170  0.7400
13107.155796   2.936e-27    43.65170  0.05310  0.7400
13107.364921   1.266e-26    56.84520  0.05170  0.7400
13107.604610   1.023e-28    42.22400  0.05070  0.7300
13107.628463   5.974e-24    42.20010  0.05310  0.7200
13108.531365   1.422e-26    42.54070  0.05310  0.7400
13109.163968   2.326e-27    41.64350  0.05310  0.7200
13110.305822   2.617e-27    29.70060  0.05440  0.7200
13110.536270   1.132e-26    40.53580  0.05310  0.7200
13111.596614   1.265e-26    28.96430  0.05440  0.7200
13112.015868   5.721e-24    18.33710  0.05640  0.7000
13112.340671   1.961e-27    27.66580  0.05440  0.7000
13113.366126   2.210e-27    18.53910  0.05640  0.7000
13113.626722   9.532e-27    26.93420  0.05440  0.7000
13113.965440   7.650e-29    16.38760  0.05300  0.7200
13114.100185   3.888e-24    16.25280  0.05640  0.7100
13114.574588   1.066e-26    18.10260  0.05640  0.7000
13115.442748   1.513e-27    16.46250  0.05640  0.7100
13116.336633   1.725e-27    10.16760  0.05850  0.7100
13116.643966   7.359e-27    16.03320  0.05640  0.7100
13117.465220   8.323e-27     9.95590  0.05850  0.7100
13118.044661   3.066e-24     3.96100  0.06150  0.7200
13118.502056   9.990e-28     8.00220  0.05850  0.7200
13119.217258   1.182e-27     4.58640  0.06150  0.7200
13119.617605   4.874e-27     7.80360  0.05850  0.7200
13119.921450   3.590e-29     2.08430  0.05630  0.7100
13120.268426   5.695e-27     4.52470  0.06150  0.7200
13126.391964   1.531e-24     3.96100  0.05640  0.7100
13126.504300   7.728e-28     0.00000  0.05850  0.7200
13127.318812   5.902e-28     4.58640  0.05640  0.7100
13127.421207   3.665e-27     0.00000  0.05850  0.7200
13128.152519   2.845e-27     4.52470  0.05640  0.7100
13128.268754   3.566e-24     2.08420  0.05640  0.7100
13129.203464   1.362e-27     2.70180  0.05640  0.7100
13129.838819   1.148e-27    10.16760  0.05440  0.7000
13130.044563   6.508e-27     2.63260  0.05640  0.7100
13130.353050   4.090e-30     0.00000  0.05860  0.7200
13130.604991   5.539e-27     9.95590  0.05440  0.7000
13131.491402   4.282e-24    18.33710  0.05310  0.7200
13131.765269   1.906e-27     8.24120  0.05440  0.7000
13132.268342   1.654e-27    18.53910  0.05310  0.7200
13132.536326   9.137e-27     8.02460  0.05440  0.7000
13132.969465   7.984e-27    18.10260  0.05310  0.7200
13133.440971   6.209e-24    16.38760  0.05310  0.7200
13133.575720   5.120e-29    16.25290  0.05630  0.7100
13134.221497   2.386e-27    16.58600  0.05310  0.7200
13134.607224   2.088e-27    29.70060  0.05170  0.7400
13134.926032   1.147e-26    16.14600  0.05310  0.7200
13135.245790   1.010e-26    28.96430  0.05170  0.7400
13136.217029   6.289e-24    44.21170  0.05070  0.7300
13136.580313   2.787e-27    27.72750  0.05170  0.7400
13136.855296   2.438e-27    43.65170  0.05070  0.7300
13137.221279   1.342e-26    26.98880  0.05170  0.7400
13137.433807   1.181e-26    42.54070  0.05070  0.7300
13138.204770   8.013e-24    42.22390  0.05070  0.7300
13138.228620   8.090e-29    42.20010  0.05300  0.7200
13138.844696   3.096e-27    41.66230  0.05070  0.7300
13139.012382   2.696e-27    60.39170  0.04970  0.7300
13139.424838   1.495e-26    40.54970  0.05070  0.7300
13139.533343   1.309e-26    58.83120  0.04970  0.7300
13140.567357   7.338e-24    81.58050  0.04900  0.7400
13141.015927   3.307e-27    58.38820  0.04970  0.7300
13141.078288   2.860e-27    79.92020  0.04900  0.7400
13141.537898   1.601e-26    56.82670  0.04970  0.7300
13141.544215   1.392e-26    77.83520  0.04900  0.7400
13142.540860   9.660e-29    79.60700  0.05070  0.7300
13142.583244   8.797e-24    79.56460  0.04900  0.7400
13143.052814   2.931e-27   102.23620  0.04830  0.7400
13143.094581   3.419e-27    77.90390  0.04900  0.7400
13143.466228   1.431e-26    99.55200  0.04830  0.7400
13143.560991   1.660e-26    75.81850  0.04900  0.7400
13144.540696   7.437e-24   130.43750  0.04800  0.7300
13144.935744   2.918e-27   127.33890  0.04800  0.7300
13145.080902   3.437e-27   100.20810  0.04830  0.7400
13145.299174   1.429e-26   123.98080  0.04800  0.7300
13145.494336   1.675e-26    97.52390  0.04830  0.7400
13146.486170   9.890e-29   128.49210  0.04910  0.7400
13146.580459   8.603e-24   128.39770  0.04800  0.7300
13146.726853   2.831e-27   155.22740  0.04730  0.7200
13146.974947   3.369e-27   125.29970  0.04800  0.7300
13147.042835   1.391e-26   151.12060  0.04730  0.7200
13147.337981   1.647e-26   121.94200  0.04800  0.7300
13147.744290   6.090e-30     2.08430  0.05630  0.7100
13148.135152   6.776e-24   190.77480  0.04700  0.7200
13148.420908   4.004e-29  2956.36930  0.02280  0.6300
13148.425903   2.682e-27   185.90050  0.04700  0.7200
13148.696981   1.323e-26   180.97040  0.04700  0.7200
13148.776671   3.227e-27   153.17760  0.04730  0.7200
13149.091875   1.583e-26   149.07160  0.04730  0.7200
13150.032645   2.486e-27   219.35710  0.04630  0.7000
13150.056900   9.090e-29   188.85310  0.04780  0.7300
13150.196583   7.658e-24   188.71330  0.04700  0.7200
13150.261369   1.232e-26   213.52900  0.04630  0.7000
13150.485957   3.026e-27   183.84050  0.04700  0.7200
13150.755900   1.491e-26   178.91150  0.04700  0.7200
13150.791663   4.170e-29  2953.99860  0.02280  0.6300
13151.348626   5.646e-24   262.58260  0.04600  0.6700
13151.546817   2.258e-27   255.59580  0.04600  0.6700
13151.735743   1.124e-26   248.79520  0.04600  0.6700
13151.761924   1.306e-28  2703.86840  0.02330  0.6300
13152.102641   2.781e-27   217.28710  0.04630  0.7000
13152.329893   1.376e-26   211.46050  0.04630  0.7000
13152.968148   2.011e-27   294.61530  0.04530  0.6600
13153.119839   1.007e-26   286.76770  0.04530  0.6600
13153.248880   7.620e-29   260.68250  0.04680  0.7200
13153.430440   6.277e-24   260.50080  0.04600  0.6700
13153.626524   2.507e-27   253.51610  0.04600  0.6700
13153.813656   1.246e-26   246.71730  0.04600  0.6700
13154.115067   1.361e-28  2701.51520  0.02330  0.6300
13154.178813   4.344e-24   345.84940  0.04460  0.6500
13154.296352   1.758e-27   336.41400  0.04460  0.6500
13154.413376   8.847e-27   327.44490  0.04460  0.6500
13154.659092   4.026e-28  2462.43080  0.02390  0.6300
13155.057378   2.218e-27   292.52610  0.04530  0.6600
13155.206967   1.109e-26   284.68060  0.04530  0.6600
13155.531133   1.510e-27   380.99020  0.04390  0.6500
13155.616062   7.641e-27   370.82540  0.04390  0.6500
13156.058890   5.880e-29   343.96940  0.04580  0.6700
13156.280200   4.772e-24   343.74810  0.04460  0.6500
13156.394954   1.929e-27   334.31540  0.04460  0.6500
13156.509579   9.695e-27   325.34870  0.04460  0.6500
13156.623203   3.105e-24   440.56170  0.04330  0.6500
13156.672184   1.274e-27   428.34220  0.04330  0.6500
13156.727595   6.488e-27   416.90740  0.04330  0.6500
13156.994619   4.204e-28  2460.09530  0.02390  0.6300
13157.118058   1.174e-27  2232.09570  0.02460  0.6300
13157.638984   1.648e-27   378.88230  0.04390  0.6500
13157.719185   1.057e-27   478.46830  0.04260  0.6400
13157.721224   8.332e-27   368.72020  0.04390  0.6500
13157.747658   5.418e-27   465.68920  0.04260  0.6400
13158.483950   4.210e-29   438.70100  0.04470  0.6500
13158.671805   8.625e-28   531.36630  0.04160  0.6400
13158.675921   4.452e-27   517.16880  0.04160  0.6400
13158.679074   2.071e-24   546.70420  0.04160  0.6400
13158.743620   3.379e-24   438.44130  0.04330  0.6500
13158.789179   1.385e-27   426.22520  0.04330  0.6500
13158.841619   7.045e-27   414.79340  0.04330  0.6500
13159.144227   3.232e-27  2012.90060  0.02550  0.6300
13159.435962   1.227e-27  2229.77780  0.02460  0.6300
13159.512042   3.601e-27   571.34440  0.04090  0.6300
13159.529702   6.925e-28   587.03430  0.04090  0.6300
13159.845237   1.144e-27   476.34220  0.04260  0.6400
13159.870463   5.861e-27   463.56630  0.04260  0.6400
13160.255666   2.867e-27   628.21370  0.03990  0.6300
13160.292519   5.473e-28   645.47000  0.03990  0.6300
13160.343498   1.292e-24   664.25960  0.03990  0.6300
13160.521060   2.820e-29   544.86220  0.04340  0.6500
13160.722753   2.534e-29  1705.80000  0.02660  0.6300
13160.742763   8.404e-27  1804.88100  0.02660  0.6300
13160.762306   4.186e-30  1752.70510  0.02660  0.6300
13160.806841   9.306e-28   529.23130  0.04160  0.6400
13160.807439   4.799e-27   515.03730  0.04160  0.6400
13160.818147   2.237e-24   544.56510  0.04160  0.6400
13160.906424   2.248e-27   687.77470  0.03890  0.6300
13160.959892   4.257e-28   706.67120  0.03890  0.6300
13161.319105   3.892e-29  1611.49880  0.02720  0.6300
13161.374371   6.514e-30  1655.81060  0.02720  0.6300
13161.444496   3.384e-27  2010.60030  0.02550  0.6300
13161.463934   1.736e-27   750.02490  0.03750  0.6300
13161.531442   3.261e-28   770.63550  0.03750  0.6300
13161.613332   7.559e-25   793.20900  0.03750  0.6300
13161.652214   3.869e-27   569.20420  0.04090  0.6300
13161.673658   7.449e-28   584.89030  0.04090  0.6300
13161.816519   5.899e-29  1519.85050  0.02780  0.6300
13161.885164   9.993e-30  1561.64200  0.02780  0.6300
13161.918589   2.063e-26  1608.07050  0.02780  0.6300
13161.927802   1.321e-27   814.96200  0.03650  0.6300
13162.006779   2.460e-28   837.36040  0.03650  0.6300
13162.167130   1.760e-29   662.43590  0.04170  0.6400
13162.215551   8.817e-29  1430.85890  0.02860  0.6300
13162.295205   1.512e-29  1470.20280  0.02860  0.6300
13162.297618   9.906e-28   882.58340  0.03550  0.6300
13162.385503   1.828e-28   906.84320  0.03550  0.6300
13162.404443   3.073e-27   626.06490  0.03990  0.6300
13162.445343   5.870e-28   643.31720  0.03990  0.6300
13162.485220   4.153e-25   933.53150  0.03550  0.6300
13162.500954   1.387e-24   662.10220  0.03990  0.6300
13162.516742   1.300e-28  1344.52730  0.02940  0.6300
13162.572959   7.319e-28   952.88650  0.03410  0.6300
13162.605000   2.254e-29  1381.49670  0.02940  0.6300
13162.667199   1.338e-28   979.08120  0.03410  0.6300
13162.676399   4.777e-26  1422.50120  0.02940  0.6300
13162.720619   1.889e-28  1260.85920  0.03030  0.6300
13162.753388   5.331e-28  1025.86860  0.03320  0.6300
13162.815044   3.313e-29  1295.52730  0.03030  0.6300
13162.827691   2.708e-28  1179.85790  0.03120  0.6300
13162.838454   3.826e-28  1101.52670  0.03220  0.6300
13162.851444   9.646e-29  1054.07160  0.03320  0.6300
13162.925820   4.800e-29  1212.29770  0.03120  0.6300
13162.937800   6.855e-29  1131.81150  0.03220  0.6300
13162.955591   2.145e-25  1085.20440  0.03320  0.6300
13162.989311   2.655e-29  1703.53340  0.02660  0.6300
13163.020655   1.043e-25  1248.20310  0.03120  0.6300
13163.025375   8.818e-27  1802.59840  0.02660  0.6300
13163.036352   4.390e-30  1750.43110  0.02660  0.6300
13163.063763   2.403e-27   685.61730  0.03890  0.6300
13163.121537   4.554e-28   704.50960  0.03890  0.6300
13163.418920   1.030e-29   791.40320  0.03980  0.6300
13163.577337   4.083e-29  1609.24060  0.02720  0.6300
13163.629799   1.851e-27   747.85900  0.03750  0.6300
13163.639853   6.837e-30  1653.54520  0.02720  0.6300
13163.701868   3.480e-28   768.46510  0.03750  0.6300
13163.788973   8.075e-25   791.03340  0.03750  0.6300
13164.041130   1.400e-29    16.38760  0.05300  0.7200
13164.066417   6.194e-29  1517.60060  0.02780  0.6300
13164.102161   1.406e-27   812.78760  0.03650  0.6300
13164.142076   1.050e-29  1559.38510  0.02780  0.6300
13164.183518   2.169e-26  1605.80560  0.02780  0.6300
13164.185952   2.620e-28   835.18120  0.03650  0.6300
13164.272980   5.680e-30   931.74330  0.03760  0.6300
13164.457109   9.269e-29  1428.61730  0.02860  0.6300
13164.480442   1.052e-27   880.40060  0.03550  0.6300
13164.543538   1.590e-29  1467.95450  0.02860  0.6300
13164.573392   1.942e-28   904.65530  0.03550  0.6300
13164.678897   4.417e-25   931.33790  0.03550  0.6300
13164.725710   2.930e-30  1083.43350  0.03540  0.6300
13164.749950   1.368e-28  1342.29400  0.02940  0.6300
13164.764225   7.759e-28   950.69530  0.03410  0.6300
13164.773280   1.420e-30  1246.44930  0.03320  0.6300
13164.844743   2.374e-29  1379.25700  0.02940  0.6300
13164.863780   1.419e-28   976.88460  0.03410  0.6300
13164.923607   5.035e-26  1420.25400  0.02940  0.6300
13164.945467   1.991e-28  1258.63430  0.03030  0.6300
13164.953075   5.641e-28  1023.66890  0.03320  0.6300
13165.044166   2.857e-28  1177.64140  0.03120  0.6300
13165.046185   3.494e-29  1293.29610  0.03030  0.6300
13165.046543   4.043e-28  1099.31860  0.03220  0.6300
13165.056692   1.022e-28  1051.86640  0.03320  0.6300
13165.148346   5.069e-29  1210.07520  0.03120  0.6300
13165.151696   7.249e-29  1129.59760  0.03220  0.6300
13165.167191   2.274e-25  1082.99280  0.03320  0.6300
13165.250091   1.102e-25  1245.97370  0.03120  0.6300
13179.923880   1.980e-29    42.22400  0.05070  0.7300
13195.413580   2.270e-29    79.56460  0.04910  0.7400
13210.512230   2.280e-29   128.39780  0.04780  0.7300
13225.217930   2.070e-29   188.71340  0.04680  0.7200
13239.527440   1.720e-29   260.50090  0.04580  0.6700
13253.436880   1.320e-29   343.74810  0.04470  0.6500
13266.941940   9.460e-30   438.44140  0.04340  0.6500
13280.038010   6.320e-30   544.56510  0.04170  0.6400
13292.720190   3.950e-30   662.10210  0.03980  0.6300
13304.983360   2.310e-30   791.03320  0.03760  0.6300
13316.822150   1.270e-30   931.33740  0.03540  0.6300
13328.230960   6.610e-31  1082.99210  0.03320  0.6300
13339.203960   3.180e-31  1245.97250  0.03120  0.6300
14284.856897   9.050e-30  2703.85640  0.02200  0.7100
14286.489475   8.853e-30  2702.22380  0.02200  0.7100
14301.464339   2.796e-29  2462.42160  0.02200  0.7100
14303.113890   2.732e-29  2460.77210  0.02200  0.7100
14317.529295   8.168e-29  2232.08890  0.02360  0.7100
14319.195864   7.967e-29  2230.42230  0.02360  0.7100
14333.055050   2.254e-28  2012.89560  0.02520  0.7100
14334.738689   2.195e-28  2011.21190  0.02520  0.7100
14341.831491   6.330e-30  1430.88600  0.02930  0.7100
14343.571663   6.139e-30  1429.14580  0.02930  0.7100
14348.044675   5.877e-28  1804.87730  0.02680  0.7100
14348.320470   9.342e-30  1344.54950  0.03010  0.7100
14349.745443   5.711e-28  1803.17650  0.02680  0.7100
14350.068788   9.050e-30  1342.80120  0.03010  0.7100
14354.684957   1.360e-29  1260.87720  0.03100  0.7100
14356.441441   1.316e-29  1259.12070  0.03100  0.7100
14360.925273   1.952e-29  1179.87250  0.03190  0.7100
14362.501027   1.446e-27  1608.06800  0.02850  0.7100
14362.689946   1.886e-29  1178.10780  0.03190  0.7100
14364.218994   1.402e-27  1606.35000  0.02850  0.7100
14367.041725   2.762e-29  1101.53830  0.03270  0.7100
14368.814615   2.665e-29  1099.76540  0.03270  0.7100
14373.034609   3.854e-29  1025.87780  0.03360  0.7100
14374.815743   3.712e-29  1024.09660  0.03360  0.7100
14376.426752   3.358e-27  1422.49950  0.03010  0.7100
14378.162000   3.248e-27  1420.76420  0.03010  0.7100
14378.904203   5.301e-29   952.89370  0.03440  0.7100
14380.693612   5.097e-29   951.10430  0.03440  0.7100
14384.650773   7.187e-29   882.58900  0.03530  0.7100
14386.448493   6.898e-29   880.79130  0.03530  0.7100
14389.824280   7.351e-27  1248.20190  0.03190  0.7100
14390.274569   9.604e-29   814.96630  0.03620  0.7100
14391.576906   7.092e-27  1246.44930  0.03190  0.7100
14392.080639   9.198e-29   813.16020  0.03620  0.7100
14393.152132   1.028e-29   979.11550  0.03440  0.7100
14394.936642   9.873e-30   977.33100  0.03440  0.7100
14395.775830   1.265e-28   750.02810  0.03710  0.7100
14397.590294   1.209e-28   748.21360  0.03710  0.7100
14399.064716   1.406e-29   906.87290  0.03530  0.7100
14400.857786   1.349e-29   905.07990  0.03530  0.7100
14401.154776   1.641e-28   687.77700  0.03800  0.7100
14402.695829   1.517e-26  1085.20370  0.03360  0.7100
14402.977685   1.564e-28   685.95410  0.03800  0.7100
14404.465951   1.458e-26  1083.43350  0.03360  0.7100
14404.851520   1.896e-29   837.38600  0.03620  0.7100
14406.411618   2.097e-28   628.21550  0.03890  0.7100
14406.653192   1.815e-29   835.58430  0.03620  0.7100
14408.243029   1.994e-28   626.38400  0.03890  0.7100
14410.512706   2.519e-29   770.65750  0.03710  0.7100
14411.546550   2.640e-28   571.34560  0.03980  0.7100
14412.323027   2.404e-29   768.84720  0.03710  0.7100
14413.386527   2.503e-28   569.50560  0.03980  0.7100
14415.043404   2.946e-26   933.53110  0.03530  0.7100
14416.048425   3.296e-29   706.69000  0.03800  0.7100
14416.559751   3.273e-28   517.16970  0.04070  0.7100
14416.831166   2.822e-26   931.74330  0.03530  0.7100
14417.867448   3.138e-29   704.87090  0.03800  0.7100
14418.408371   3.094e-28   515.32100  0.04070  0.7100
14421.451387   3.995e-28   465.68970  0.04160  0.7100
14421.458815   4.245e-29   645.48590  0.03890  0.7100
14423.286603   4.032e-29   643.65810  0.03890  0.7100
14423.308738   3.762e-28   463.83240  0.04160  0.7100
14426.221612   4.799e-28   416.90780  0.04260  0.7100
14426.744006   5.385e-29   587.04760  0.03980  0.7100
14426.868795   5.383e-26   793.20880  0.03710  0.7100
14428.087797   4.502e-28   415.04160  0.04260  0.7100
14428.580627   5.100e-29   585.21100  0.03980  0.7100
14428.674378   5.135e-26   791.40320  0.03710  0.7100
14430.870561   5.672e-28   370.82560  0.04350  0.7100
14431.904112   6.724e-29   531.37750  0.04070  0.7100
14432.745705   5.297e-28   368.95050  0.04350  0.7100
14433.749649   6.348e-29   529.53190  0.04070  0.7100
14435.398359   6.594e-28   327.44510  0.04440  0.7100
14436.939241   8.263e-29   478.47750  0.04160  0.7100
14437.282609   6.127e-28   325.56080  0.04440  0.7100
14438.173580   9.243e-26   664.25950  0.03890  0.7100
14438.793787   7.773e-29   476.62300  0.04160  0.7100
14439.805115   7.535e-28   286.76780  0.04540  0.7100
14439.997214   8.771e-26   662.43590  0.03890  0.7100
14441.698652   6.962e-28   284.87420  0.04540  0.7100
14441.849486   9.991e-29   428.34990  0.04260  0.7100
14443.713152   9.362e-29   426.48620  0.04260  0.7100
14444.090924   8.461e-28   248.79530  0.04630  0.7100
14445.993972   7.766e-28   246.89220  0.04630  0.7100
14446.634929   1.188e-28   380.99640  0.04350  0.7100
14448.255866   9.329e-28   213.52910  0.04730  0.7100
14448.507848   1.108e-28   379.12350  0.04350  0.7100
14448.959123   1.489e-25   546.70420  0.04070  0.7100
14450.168706   8.497e-28   211.61620  0.04730  0.7100
14450.801110   1.404e-25   544.86220  0.04070  0.7100
14451.295642   1.389e-28   336.41900  0.04440  0.7100
14452.300009   1.009e-27   180.97040  0.04830  0.7100
14453.177973   1.289e-28   334.53660  0.04440  0.7100
14454.223001   9.108e-28   179.04740  0.04830  0.7100
14455.831686   1.596e-28   294.61930  0.04540  0.7100
14456.223405   1.070e-27   151.12060  0.04920  0.7100
14457.723622   1.473e-28   292.72740  0.04540  0.7100
14458.157023   9.552e-28   149.18700  0.04920  0.7100
14459.226576   2.246e-25   440.56180  0.04260  0.7100
14460.026091   1.110e-27   123.98080  0.05020  0.7100
14460.243109   1.802e-28   255.59900  0.04630  0.7100
14461.087324   2.102e-25   438.70100  0.04260  0.7100
14461.970977   9.782e-28   122.03600  0.05020  0.7100
14462.144890   1.651e-28   253.69720  0.04630  0.7100
14463.708094   1.125e-27    99.55210  0.05120  0.7100
14464.529949   1.995e-28   219.35960  0.04730  0.7100
14465.665142   9.756e-28    97.59500  0.05120  0.7100
14466.441876   1.815e-28   217.44770  0.04730  0.7100
14467.269421   1.112e-27    77.83530  0.05220  0.7100
14468.692231   2.167e-28   185.90240  0.04830  0.7100
14468.976876   3.166e-25   345.84950  0.04440  0.7100
14469.239942   9.443e-28    75.86470  0.05220  0.7100
14470.614691   1.953e-28   183.98000  0.04830  0.7100
14470.710069   1.067e-27    58.83120  0.05320  0.7100
14470.856956   2.934e-25   343.96940  0.04440  0.7100
14472.696090   8.820e-28    56.84520  0.05320  0.7100
14472.729972   2.307e-28   155.22880  0.04920  0.7100
14474.030020   9.903e-28    42.54070  0.05420  0.7100
14474.663473   2.057e-28   153.29530  0.04920  0.7100
14476.034925   7.884e-28    40.53580  0.05420  0.7100
14476.643174   2.403e-28   127.34000  0.05020  0.7100
14477.229241   8.817e-28    28.96440  0.05520  0.7100
14478.210747   4.156e-25   262.58270  0.04630  0.7100
14478.588402   2.114e-28   125.39480  0.05020  0.7100
14479.259350   6.645e-28    26.93430  0.05520  0.7100
14480.111002   3.802e-25   260.68250  0.04630  0.7100
14480.307685   7.438e-28    18.10260  0.05620  0.7100
14480.431829   2.444e-28   102.23700  0.05120  0.7100
14482.377063   5.133e-28    16.03330  0.05620  0.7100
14482.389746   2.114e-28   100.27910  0.05120  0.7100
14483.265290   5.805e-28     9.95600  0.05720  0.7100
14484.095920   2.421e-28    79.92070  0.05220  0.7100
14485.417676   3.402e-28     7.80360  0.05720  0.7100
14486.067930   2.050e-28    77.94870  0.05220  0.7100
14486.097470   3.974e-28     4.52470  0.05830  0.7100
14486.928699   5.053e-25   190.77480  0.04830  0.7100
14487.635415   2.331e-28    60.39210  0.05320  0.7100
14488.850445   4.544e-25   188.85310  0.04830  0.7100
14489.623690   1.920e-28    58.40390  0.05320  0.7100
14491.050273   2.167e-28    43.65190  0.05420  0.7100
14493.058445   1.719e-28    41.64380  0.05420  0.7100
14493.221278   2.314e-28     0.00000  0.05720  0.7100
14493.885615   1.988e-28     4.52470  0.05620  0.7100
14494.340441   1.934e-28    29.70080  0.05520  0.7100
14495.131032   5.649e-25   130.43750  0.05020  0.7100
14495.777659   4.551e-28     2.63270  0.05620  0.7100
14496.237619   3.873e-28     9.95600  0.05520  0.7100
14496.375290   1.449e-28    27.66600  0.05520  0.7100
14497.076507   4.956e-25   128.49210  0.05020  0.7100
14497.505855   1.634e-28    18.53920  0.05620  0.7100
14498.168954   6.392e-28     8.02470  0.05520  0.7100
14498.468120   5.585e-28    18.10260  0.05420  0.7100
14499.582478   1.119e-28    16.46260  0.05620  0.7100
14500.424687   8.027e-28    16.14610  0.05420  0.7100
14500.546439   1.276e-28    10.16770  0.05720  0.7100
14500.576958   7.065e-28    28.96440  0.05320  0.7100
14502.552447   9.400e-28    26.98890  0.05320  0.7100
14502.563959   8.269e-28    42.54070  0.05220  0.7100
14502.711863   7.392e-29     8.00230  0.05720  0.7100
14502.817828   5.734e-25    81.58050  0.05220  0.7100
14503.495254   5.828e-29     4.58650  0.05830  0.7100
14504.428935   9.168e-28    58.83120  0.05120  0.7100
14504.554991   1.047e-27    40.54970  0.05220  0.7100
14504.791333   4.841e-25    79.60700  0.05220  0.7100
14506.171682   9.753e-28    77.83530  0.05020  0.7100
14506.433490   1.122e-27    56.82670  0.05120  0.7100
14507.791982   1.003e-27    99.55210  0.04920  0.7100
14508.188458   1.164e-27    75.81850  0.05020  0.7100
14509.131871   6.209e-30  1430.88600  0.02760  0.7100
14509.289606   1.002e-27   123.98080  0.04830  0.7100
14509.820091   1.174e-27    97.52400  0.04920  0.7100
14509.988958   5.159e-25    44.21170  0.05420  0.7100
14510.552303   9.153e-30  1344.54950  0.02850  0.7100
14510.664307   9.761e-28   151.12060  0.04730  0.7100
14510.714124   5.191e-29     0.00000  0.05720  0.7100
14511.328413   1.155e-27   121.94200  0.04830  0.7100
14511.373429   6.527e-30  1428.64440  0.02760  0.7100
14511.458571   4.374e-29     4.58650  0.05620  0.7100
14511.840821   1.330e-29  1260.87720  0.02930  0.7100
14511.915825   9.288e-28   180.97040  0.04630  0.7100
14512.000551   4.072e-25    42.20010  0.05420  0.7100
14512.713346   1.111e-27   149.07160  0.04730  0.7100
14512.785511   9.632e-30  1342.31630  0.02850  0.7100
14512.997983   1.907e-29  1179.87250  0.03010  0.7100
14513.043887   8.650e-28   213.52910  0.04540  0.7100
14513.343223   1.010e-28     2.70180  0.05620  0.7100
14513.873478   8.514e-29    10.16770  0.05520  0.7100
14513.974744   1.047e-27   178.91150  0.04630  0.7100
14514.024332   2.694e-29  1101.53830  0.03100  0.7100
14514.048204   7.895e-28   248.79530  0.04440  0.7100
14514.065669   1.402e-29  1258.65240  0.02930  0.7100
14514.920398   3.753e-29  1025.87780  0.03190  0.7100
14514.928475   7.070e-28   286.76780  0.04350  0.7100
14515.112411   9.663e-28   211.46050  0.04540  0.7100
14515.214458   2.012e-29  1177.65600  0.03010  0.7100
14515.684383   6.216e-28   327.44510  0.04260  0.7100
14515.686696   5.153e-29   952.89370  0.03270  0.7100
14515.799927   1.414e-28     8.24130  0.05520  0.7100
14516.126117   8.755e-28   246.71740  0.04440  0.7100
14516.162864   1.226e-28    18.53920  0.05420  0.7100
14516.232421   2.847e-29  1099.33020  0.03100  0.7100
14516.315597   5.370e-28   370.82560  0.04160  0.7100
14516.323726   6.974e-29   882.58900  0.03360  0.7100
14516.644080   3.902e-25    18.33720  0.05620  0.7100
14516.821773   4.561e-28   416.90780  0.04070  0.7100
14516.831976   9.301e-29   814.96630  0.03440  0.7100
14517.015604   7.791e-28   284.68070  0.04350  0.7100
14517.120085   3.972e-29  1023.67810  0.03190  0.7100
14517.202551   3.810e-28   465.68970  0.03980  0.7100
14517.211918   1.222e-28   750.02810  0.03530  0.7100
14517.457558   3.131e-28   517.16970  0.03890  0.7100
14517.464010   1.582e-28   687.77700  0.03620  0.7100
14517.586407   2.533e-28   571.34560  0.03800  0.7100
14517.588696   2.017e-28   628.21550  0.03710  0.7100
14517.780586   6.812e-28   325.34890  0.04260  0.7100
14517.877962   5.463e-29   950.70250  0.03270  0.7100
14518.116020   1.770e-28    16.58610  0.05420  0.7100
14518.326575   1.549e-28    29.70080  0.05320  0.7100
14518.420759   5.857e-28   368.72050  0.04160  0.7100
14518.506550   7.407e-29   880.40620  0.03360  0.7100
14518.728397   2.653e-25    16.25290  0.05620  0.7100
14518.935797   4.953e-28   414.79370  0.04070  0.7100
14519.006334   9.898e-29   812.79190  0.03440  0.7100
14519.325356   4.121e-28   463.56690  0.03980  0.7100
14519.377783   1.303e-28   747.86220  0.03530  0.7100
14519.589076   3.376e-28   515.03820  0.03890  0.7100
14519.621349   1.691e-28   685.61970  0.03620  0.7100
14519.726579   2.722e-28   569.20540  0.03800  0.7100
14519.737473   2.162e-28   626.06670  0.03710  0.7100
14520.196439   8.990e-30  2703.85640  0.02200  0.7100
14520.299665   2.069e-28    27.72770  0.05320  0.7100
14520.364446   1.810e-28    43.65190  0.05220  0.7100
14522.276298   2.002e-28    60.39210  0.05120  0.7100
14522.353846   2.300e-28    41.66250  0.05220  0.7100
14522.549582   9.370e-30  2701.50320  0.02200  0.7100
14522.782602   2.093e-25     3.96110  0.05830  0.7100
14524.061943   2.126e-28    79.92070  0.05020  0.7100
14524.279844   2.457e-28    58.38860  0.05120  0.7100
14525.721181   2.179e-28   102.23700  0.04920  0.7100
14526.078237   2.541e-28    77.90440  0.05020  0.7100
14526.288221   2.773e-29  2462.42160  0.02200  0.7100
14527.253802   2.171e-28   127.34000  0.04830  0.7100
14527.749270   2.556e-28   100.20890  0.04920  0.7100
14528.623749   2.894e-29  2460.08610  0.02200  0.7100
14528.659582   2.106e-28   155.22880  0.04730  0.7100
14529.293006   2.506e-28   125.30080  0.04830  0.7100
14529.938288   1.997e-28   185.90240  0.04630  0.7100
14530.709402   2.402e-28   153.17900  0.04730  0.7100
14531.020175   1.047e-25     3.96110  0.05620  0.7100
14531.089674   1.851e-28   219.35960  0.04540  0.7100
14531.794522   8.083e-29  2232.08890  0.02200  0.7100
14531.998343   2.253e-28   183.84240  0.04630  0.7100
14532.113484   1.682e-28   255.59900  0.04440  0.7100
14532.896966   2.440e-25     2.08430  0.05620  0.7100
14533.009451   1.498e-28   294.61930  0.04350  0.7100
14533.159672   2.070e-28   217.28960  0.04540  0.7100
14533.676363   9.993e-30   979.11550  0.03270  0.7100
14533.777295   1.310e-28   336.41900  0.04260  0.7100
14534.112427   8.449e-29  2229.77100  0.02200  0.7100
14534.193192   1.868e-28   253.51930  0.04440  0.7100
14534.339519   1.365e-29   906.87290  0.03360  0.7100
14534.416726   1.125e-28   380.99640  0.04160  0.7100
14534.870736   1.837e-29   837.38600  0.03440  0.7100
14534.927443   9.498e-29   428.34990  0.04070  0.7100
14535.086106   7.633e-30  1051.90580  0.03190  0.7100
14535.098683   1.653e-28   292.53010  0.04350  0.7100
14535.270418   2.434e-29   770.65750  0.03530  0.7100
14535.309132   7.883e-29   478.47750  0.03980  0.7100
14535.538957   3.178e-29   706.69000  0.03620  0.7100
14535.561469   6.435e-29   531.37750  0.03890  0.7100
14535.676734   4.084e-29   645.48590  0.03710  0.7100
14535.684119   5.168e-29   587.04760  0.03800  0.7100
14535.863490   2.931e-25    18.33720  0.05420  0.7100
14535.872947   1.060e-29   976.91890  0.03270  0.7100
14535.875900   1.437e-28   334.32040  0.04260  0.7100
14536.524579   1.228e-28   378.88850  0.04160  0.7100
14536.527412   1.451e-29   904.68500  0.03360  0.7100
14536.720699   2.226e-28  2012.89560  0.02360  0.7100
14537.044440   1.033e-28   426.23280  0.04070  0.7100
14537.049912   1.956e-29   835.20680  0.03440  0.7100
14537.435186   8.536e-29   476.35150  0.03980  0.7100
14537.440847   2.599e-29   768.48700  0.03530  0.7100
14537.696507   6.943e-29   529.24240  0.03890  0.7100
14537.700604   3.401e-29   704.52830  0.03620  0.7100
14537.813058   4.252e-25    16.38760  0.05420  0.7100
14537.828078   5.559e-29   584.90370  0.03800  0.7100
14537.829560   4.381e-29   643.33300  0.03710  0.7100
14539.020967   2.331e-28  2010.59530  0.02360  0.7100
14540.186614   4.308e-25    44.21170  0.05220  0.7100
14541.071895   5.790e-28  1804.87730  0.02520  0.7100
14542.174355   5.492e-25    42.22400  0.05220  0.7100
14543.354507   6.074e-28  1802.59470  0.02520  0.7100
14543.988032   5.031e-25    81.58050  0.05020  0.7100
14544.853039   1.421e-27  1608.06800  0.02680  0.7100
14546.003919   6.033e-25    79.56460  0.05020  0.7100
14547.117968   1.494e-27  1605.80300  0.02680  0.7100
14547.266014   5.102e-25   130.43750  0.04830  0.7100
14548.068849   3.292e-27  1422.49950  0.02850  0.7100
14549.305777   5.905e-25   128.39780  0.04830  0.7100
14550.018617   4.652e-25   190.77480  0.04630  0.7100
14550.316057   3.468e-27  1420.25230  0.02850  0.7100
14550.723827   7.185e-27  1248.20190  0.03010  0.7100
14552.080049   5.259e-25   188.71340  0.04630  0.7100
14552.243686   3.879e-25   262.58270  0.04440  0.7100
14552.822263   1.478e-26  1085.20370  0.03190  0.7100
14552.953264   7.592e-27  1245.97250  0.03010  0.7100
14553.938850   2.986e-25   345.84950  0.04260  0.7100
14554.325500   4.314e-25   260.50090  0.04440  0.7100
14554.368235   2.860e-26   933.53110  0.03360  0.7100
14555.033863   1.566e-26  1082.99210  0.03190  0.7100
14555.101526   2.136e-25   440.56180  0.04070  0.7100
14555.365603   5.205e-26   793.20880  0.03530  0.7100
14555.728920   1.425e-25   546.70420  0.03890  0.7100
14555.818020   8.894e-26   664.25950  0.03710  0.7100
14556.040236   3.281e-25   343.74810  0.04260  0.7100
14556.561911   3.042e-26   931.33740  0.03360  0.7100
14557.221944   2.324e-25   438.44140  0.04070  0.7100
14557.541244   5.560e-26   791.03320  0.03530  0.7100
14557.867992   1.539e-25   544.56510  0.03890  0.7100
14557.975476   9.550e-26   662.10210  0.03710  0.7100
15685.249687   8.278e-30  2012.89560  0.02850  0.7100
15686.933325   8.061e-30  2011.21190  0.02850  0.7100
15702.872988   2.158e-29  1804.87730  0.02990  0.7100
15704.573756   2.097e-29  1803.17650  0.02990  0.7100
15719.811385   5.311e-29  1608.06800  0.03160  0.7100
15721.529352   5.150e-29  1606.35000  0.03160  0.7100
15732.729009   6.177e-30   687.77700  0.04380  0.7100
15734.551918   5.889e-30   685.95410  0.04380  0.7100
15736.068086   1.233e-28  1422.49950  0.03350  0.7100
15737.803335   1.193e-28  1420.76420  0.03350  0.7100
15738.705209   7.895e-30   628.21550  0.04480  0.7100
15740.536620   7.507e-30   626.38400  0.04480  0.7100
15744.523777   9.940e-30   571.34560  0.04580  0.7100
15746.363754   9.424e-30   569.50560  0.04580  0.7100
15750.185105   1.232e-29   517.16970  0.04660  0.7100
15751.646057   2.700e-28  1248.20190  0.03570  0.7100
15752.033726   1.165e-29   515.32100  0.04660  0.7100
15753.398684   2.605e-28  1246.44930  0.03570  0.7100
15755.689566   1.504e-29   465.68970  0.04740  0.7100
15757.546917   1.416e-29   463.83240  0.04740  0.7100
15761.037503   1.807e-29   416.90780  0.04810  0.7100
15762.903689   1.695e-29   415.04160  0.04810  0.7100
15766.229237   2.135e-29   370.82560  0.04870  0.7100
15766.548014   5.570e-28  1085.20370  0.03800  0.7100
15768.104381   1.994e-29   368.95050  0.04870  0.7100
15768.318136   5.357e-28  1083.43350  0.03800  0.7100
15771.265063   2.482e-29   327.44510  0.04930  0.7100
15773.149313   2.307e-29   325.56080  0.04930  0.7100
15776.145252   2.837e-29   286.76780  0.04980  0.7100
15778.038789   2.621e-29   284.87420  0.04980  0.7100
15780.776426   1.082e-27   933.53110  0.04040  0.7100
15780.870049   3.185e-29   248.79530  0.05030  0.7100
15782.564188   1.037e-27   931.74330  0.04040  0.7100
15782.773097   2.924e-29   246.89220  0.05030  0.7100
15785.439674   3.512e-29   213.52910  0.05090  0.7100
15787.352514   3.199e-29   211.61620  0.05090  0.7100
15789.854323   3.799e-29   180.97040  0.05140  0.7100
15791.777315   3.429e-29   179.04740  0.05140  0.7100
15794.114167   4.027e-29   151.12060  0.05200  0.7100
15794.333515   1.978e-27   793.20880  0.04270  0.7100
15796.047786   3.596e-29   149.18700  0.05200  0.7100
15796.139098   1.887e-27   791.40320  0.04270  0.7100
15798.219351   4.178e-29   123.98080  0.05270  0.7100
15800.164237   3.683e-29   122.03600  0.05270  0.7100
15802.169996   4.236e-29    99.55210  0.05350  0.7100
15804.127045   3.673e-29    97.59500  0.05350  0.7100
15805.966198   4.185e-29    77.83530  0.05450  0.7100
15807.221256   3.396e-27   664.25950  0.04480  0.7100
15807.936719   3.555e-29    75.86470  0.05450  0.7100
15809.044890   3.222e-27   662.43590  0.04480  0.7100
15809.608028   4.017e-29    58.83120  0.05560  0.7100
15811.594049   3.321e-29    56.84520  0.05560  0.7100
15813.095532   3.728e-29    42.54070  0.05690  0.7100
15815.100437   2.968e-29    40.53580  0.05690  0.7100
15816.428730   3.319e-29    28.96440  0.05860  0.7100
15818.458839   2.502e-29    26.93430  0.05860  0.7100
15819.441378   5.469e-27   546.70420  0.04660  0.7100
15819.607620   2.800e-29    18.10260  0.06060  0.7100
15821.283365   5.158e-27   544.86220  0.04660  0.7100
15821.676998   1.932e-29    16.03330  0.06060  0.7100
15822.632171   2.185e-29     9.95600  0.06300  0.7100
15824.784557   1.281e-29     7.80360  0.06300  0.7100
15825.586503   1.496e-29     4.52470  0.06610  0.7100
15830.995360   8.253e-27   440.56180  0.04810  0.7100
15832.588159   8.711e-30     0.00000  0.06300  0.7100
15832.856108   7.722e-27   438.70100  0.04810  0.7100
15833.185550   7.484e-30     4.52470  0.06060  0.7100
15835.077594   1.713e-29     2.63270  0.06060  0.7100
15835.437108   1.458e-29     9.95600  0.05860  0.7100
15837.368443   2.406e-29     8.02470  0.05860  0.7100
15837.533631   2.102e-29    18.10260  0.05690  0.7100
15839.474917   2.659e-29    28.96440  0.05560  0.7100
15839.490199   3.021e-29    16.14610  0.05690  0.7100
15841.260737   3.112e-29    42.54070  0.05450  0.7100
15841.450405   3.538e-29    26.98890  0.05560  0.7100
15841.884436   1.163e-26   345.84950  0.04930  0.7100
15842.890838   3.451e-29    58.83120  0.05350  0.7100
15843.251768   3.942e-29    40.54970  0.05450  0.7100
15843.764517   1.078e-26   343.96940  0.04930  0.7100
15844.364941   3.671e-29    77.83530  0.05270  0.7100
15844.895392   4.223e-29    56.82670  0.05350  0.7100
15845.682745   3.775e-29    99.55210  0.05200  0.7100
15846.381717   4.381e-29    75.81850  0.05270  0.7100
15846.843920   3.772e-29   123.98080  0.05140  0.7100
15847.491441   5.951e-30   687.77700  0.04160  0.7100
15847.710853   4.419e-29    97.52400  0.05200  0.7100
15847.848115   3.673e-29   151.12060  0.05090  0.7100
15848.407620   7.589e-30   628.21550  0.04270  0.7100
15848.694950   3.495e-29   180.97040  0.05030  0.7100
15848.882727   4.348e-29   121.94200  0.05140  0.7100
15849.160638   9.529e-30   571.34560  0.04380  0.7100
15849.384024   3.255e-29   213.52910  0.04980  0.7100
15849.648781   6.362e-30   685.61970  0.04160  0.7100
15849.751148   1.178e-29   517.16970  0.04480  0.7100
15849.897154   4.182e-29   149.07160  0.05090  0.7100
15849.914908   2.971e-29   248.79530  0.04930  0.7100
15850.179777   1.433e-29   465.68970  0.04580  0.7100
15850.287151   2.660e-29   286.76780  0.04870  0.7100
15850.447127   1.716e-29   416.90780  0.04660  0.7100
15850.500274   2.339e-29   327.44510  0.04810  0.7100
15850.553775   2.021e-29   370.82560  0.04740  0.7100
15850.556397   8.133e-30   626.06670  0.04270  0.7100
15850.753869   3.939e-29   178.91150  0.05030  0.7100
15851.300811   1.024e-29   569.20540  0.04380  0.7100
15851.452548   3.636e-29   211.46050  0.04980  0.7100
15851.882666   1.270e-29   515.03820  0.04480  0.7100
15851.992821   3.295e-29   246.71740  0.04930  0.7100
15852.109594   1.527e-26   262.58270  0.05030  0.7100
15852.302582   1.551e-29   463.56690  0.04580  0.7100
15852.374280   2.932e-29   284.68070  0.04870  0.7100
15852.561151   1.863e-29   414.79370  0.04660  0.7100
15852.596477   2.563e-29   325.34890  0.04810  0.7100
15852.658937   2.204e-29   368.72050  0.04740  0.7100
15854.009849   1.397e-26   260.68250  0.05030  0.7100
15861.671570   1.856e-26   190.77480  0.05140  0.7100
15863.593316   1.669e-26   188.85310  0.05140  0.7100
15870.570859   2.076e-26   130.43750  0.05270  0.7100
15872.516334   1.821e-26   128.49210  0.05270  0.7100
15878.807703   2.106e-26    81.58050  0.05450  0.7100
15880.781209   1.779e-26    79.60700  0.05450  0.7100
15886.129425   8.163e-30  2012.89560  0.02740  0.7100
15886.382102   1.895e-26    44.21170  0.05690  0.7100
15888.393695   1.496e-26    42.20010  0.05690  0.7100
15888.429694   8.548e-30  2010.59530  0.02740  0.7100
15893.266531   2.124e-29  1804.87730  0.02850  0.7100
15893.293805   1.434e-26    18.33720  0.06060  0.7100
15895.378122   9.745e-27    16.25290  0.06060  0.7100
15895.549144   2.228e-29  1802.59470  0.02850  0.7100
15899.542189   7.846e-27     3.96110  0.06610  0.7100
15899.681353   5.214e-29  1608.06800  0.02990  0.7100
15901.946282   5.481e-29  1605.80300  0.02990  0.7100
15905.379206   1.207e-28  1422.49950  0.03160  0.7100
15907.626414   1.272e-28  1420.25230  0.03160  0.7100
15907.669900   3.847e-27     3.96110  0.06060  0.7100
15909.546691   8.962e-27     2.08430  0.06060  0.7100
15910.365162   2.636e-28  1248.20190  0.03350  0.7100
15912.256634   1.076e-26    18.33720  0.05690  0.7100
15912.594598   2.785e-28  1245.97250  0.03350  0.7100
15914.206202   1.561e-26    16.38760  0.05690  0.7100
15914.644041   5.422e-28  1085.20370  0.03570  0.7100
15916.176489   1.583e-26    44.21170  0.05450  0.7100
15916.855641   5.747e-28  1082.99210  0.03570  0.7100
15918.164231   2.017e-26    42.22400  0.05450  0.7100
15918.220419   1.050e-27   933.53110  0.03800  0.7100
15919.427859   1.847e-26    81.58050  0.05270  0.7100
15920.414096   1.116e-27   931.33740  0.03800  0.7100
15921.098626   1.910e-27   793.20880  0.04040  0.7100
15921.443746   2.216e-26    79.56460  0.05270  0.7100
15922.008885   1.874e-26   130.43750  0.05140  0.7100
15923.274267   2.040e-27   791.03320  0.04040  0.7100
15923.282740   3.264e-27   664.25950  0.04270  0.7100
15923.917464   1.708e-26   190.77480  0.05030  0.7100
15924.048648   2.169e-26   128.39780  0.05140  0.7100
15924.776596   5.231e-27   546.70420  0.04480  0.7100
15925.151246   1.424e-26   262.58270  0.04930  0.7100
15925.440196   3.505e-27   662.10210  0.04270  0.7100
15925.583781   7.841e-27   440.56180  0.04660  0.7100
15925.707634   1.097e-26   345.84950  0.04810  0.7100
15925.978895   1.932e-26   188.71340  0.05030  0.7100
15926.915668   5.651e-27   544.56510  0.04480  0.7100
15927.233061   1.584e-26   260.50090  0.04930  0.7100
15927.704199   8.534e-27   438.44140  0.04660  0.7100
15927.809020   1.204e-26   343.74810  0.04810  0.7100
